24 1001
Beverley Allan and Hugh Coe
 University of East Anglia, Norwich, UK 
 Differential Optical Absorption Spectrometer, Mace Head, Eire 
ACSOE OXICOA EASE'96
1 1
1996 08 01  1997 01 29
0
Time in fractional Julian Day
3
1.0 1.0 1
999 999 999
FORMALDEHYDE (pptv)
ERROR FROM ANALYSIS (pptv)
ERROR FLAG
2
Missing data markers represent poor raw data / hardware problems.   
Detection limit for HCHO is 135 ppt determined from the analysis.   
5   
THIS-FILE-NAME=mh960801.fm2   
THIS-FILE-VERSION=1   
THIS-FILE-ENDS=1996 08 01   
E-MAIL-CONTACT=b.allan@uea.ac.uk   
Jday HCHO Analysis Error Error Flag
214.0028	129.54	216.17	1
214.0098	54.71	154.19	1
214.0167	33.23	151.75	1
214.0236	43.56	155.79	1
214.0306	96.68	157.73	1
214.0375	81.72	155.67	1
214.0445	-0.57	157.26	1
214.0514	-23.61	156.43	1
214.0584	63.59	154.96	1
214.0653	-23.37	157.7	1
214.0723	-5.6	157.56	1
214.0792	67.03	157.34	1
214.0861	28.38	158.74	1
214.0931	45.25	161.37	1
214.1	62.49	164.12	1
214.107	91.93	164	1
214.1139	121.08	164.12	1
214.1209	95.71	165.97	1
214.1278	188.49	166.49	1
214.1348	106.11	166.07	1
214.1417	187.61	167.22	1
214.1486	279.32	168.8	1
214.1556	298.35	166.18	1
214.1625	332.55	166.41	1
214.1695	376.87	166.11	1
214.1764	292.91	165.18	1
214.1834	283.41	165.54	1
214.1903	343.69	166.48	1
214.1973	296.74	166.29	1
214.2042	429.12	167.54	1
214.2111	342.5	165.95	1
214.2181	284.81	164.38	1
214.225	362.19	167.03	1
214.232	372.65	165.62	1
214.2389	402.94	167.13	1
214.2459	427.06	170.36	1
214.2528	195.74	170.82	1
214.2604	195.8	169.48	1
214.2674	334.16	174.28	1
214.2743	336.18	176.16	1
214.2813	365.12	177.11	1
214.2882	267.97	175.53	1
214.2952	434.54	178.64	1
214.3021	355.66	180.31	1
214.3091	311.84	178.1	1
214.316	326.4	176.23	1
214.3229	346.56	177.58	1
214.3299	387.97	181.4	1
214.3368	999	999	3
214.3438	288.67	180.14	1
214.3507	431.92	180.69	1
214.3577	470.64	184.5	1
214.3646	299.2	186.97	1
214.3716	354.45	184.98	1
214.3966	44.6	207.06	1
214.4035	374.4	200.8	1
214.4104	226.43	182.39	1
214.4174	419.92	186.19	1
214.4243	529.5	198.5	1
214.4313	461.26	204.26	1
214.4382	451.54	198.31	1
214.4452	393.23	207.41	1
214.4521	472.56	205.45	1
214.4591	431.11	208.39	1
214.466	616.34	208.44	1
214.4729	406.67	200.84	1
214.4799	475.54	199.7	1
214.4868	308.47	199.33	1
214.4938	321.05	203.37	1
214.5007	453.13	195.7	1
214.5077	451.47	189.17	1
214.5146	336.61	183.66	1
214.5216	352.15	179.79	1
214.5285	357.16	181.23	1
214.5354	303.45	184.72	1
214.5424	270.59	185.04	1
214.5493	290.31	183.72	1
214.5563	357.65	185.86	1
214.5632	387.26	188.68	1
214.5702	406.02	188.8	1
214.5771	364.35	193.85	1
214.5841	434.71	218.78	1
214.591	527.29	191.36	1
214.5979	502.29	192.6	1
214.6049	347.6	183.27	1
214.6118	329.95	179.16	1
214.6188	242.97	181	1
214.6257	269.12	179.76	1
214.6327	202.72	177.33	1
214.6396	150.45	170.14	1
214.6466	102.42	166.75	1
214.6535	999	999	3
214.6604	175.49	161.24	1
214.6674	108.17	165.56	1
214.6743	197.5	171.17	1
214.6813	249.17	169.83	1
214.6882	205.78	170.31	1
214.6952	140.79	167.64	1
214.7021	82.1	160.18	1
214.7091	151.11	156.5	1
214.716	104.67	156.12	1
214.7229	191.36	164.09	1
214.7299	126.55	163.27	1
214.7368	265.58	172.97	1
214.7438	123.89	169.79	1
214.7507	328.48	166.79	1
214.7813	376.68	166.46	1
214.7882	294.84	162.69	1
214.7952	349.03	163.79	1
214.8021	391.83	164.11	1
214.8091	317.03	162.04	1
214.816	280.83	161.74	1
214.8229	125.73	159.25	1
214.8299	206.23	160.21	1
214.8368	174.45	162.75	1
214.8438	232.71	161.33	1
214.8507	184.66	165.2	1
214.8577	283.04	163.63	1
214.8646	254.78	162.03	1
214.8716	243.84	165.28	1
214.8785	179.07	168.37	1
214.8854	234.31	169.46	1
214.8924	246.87	168.85	1
214.8993	200.85	167.16	1
214.9063	204.51	170.38	1
214.9132	261.08	173.4	1
214.9202	259.35	174.63	1
214.9271	211.3	176.06	1
214.9341	217.56	176.3	1
214.941	311.04	176.13	1
214.9479	363.73	176.56	1
214.9549	338.47	176.62	1
214.9618	393	180.88	1
214.9688	309.21	177.36	1
214.9757	318.65	178.29	1
214.9827	297.73	179.87	1
214.9896	397.14	179	1
214.9966	355.84	179.8	1
