25 1001
Beverley Allan and Hugh Coe
University of East Anglia, Norwich, UK 
Differential Optical Absorption Spectrometer, Mace Head, Eire 
ACSOE OXICOA EASE'96
1 1
1996 08 02  1999 03 31
0
Time in fractional Julian Day
3
1.0 1.0 1
999 999 999
CHLORINE DIOXIDE (OCLO) (pptv)
ERROR FROM ANALYSIS (pptv)
ERROR FLAG
3
Missing data markers represent poor raw data / hardware problems.   
Detection limit for OClO is 2-5 ppt determined from the analysis.   
8888 =concentrations at and below the detection limit (the detection limit has been calculated for each point and is given below)   
5   
THIS-FILE-NAME=mh960802.oc1   
THIS-FILE-VERSION=2   
THIS-FILE-ENDS=1996 08 02   
E-MAIL-CONTACT=b.allan@uea.ac.uk   
Jday OClO Analysis Error Error Flag
215.0035	8888	0.72	1
215.0104	8888	0.72	1
215.0174	8888	0.72	1
215.0243	8888	0.72	1
215.0313	8888	0.74	1
215.0382	8888	0.72	1
215.0452	8888	0.73	1
215.0521	8888	0.72	1
215.0591	8888	0.72	1
215.066	8888	999	3
215.0729	8888	0.75	1
215.0799	8888	0.74	1
215.0868	8888	0.74	1
215.0938	8888	0.74	1
215.1007	8888	0.77	1
215.1077	8888	0.75	1
215.1146	8888	0.74	1
215.1216	8888	0.75	1
215.1285	8888	0.74	1
215.1354	8888	0.75	1
215.1424	8888	0.76	1
215.1493	999	999	3
215.1563	8888	0.74	1
215.1632	8888	0.74	1
215.1702	8888	0.74	1
215.1771	8888	0.74	1
215.1841	8888	0.74	1
215.191	8888	0.74	1
215.1979	8888	0.75	1
215.2049	8888	0.75	1
215.2118	8888	0.76	1
215.2188	8888	0.76	1
215.2257	8888	0.76	1
215.2327	8888	0.76	1
215.2396	8888	0.78	1
215.2466	8888	0.78	1
215.2535	8888	0.78	1
215.2604	8888	0.78	1
215.2674	8888	0.76	1
215.2743	8888	0.77	1
215.2813	8888	0.77	1
215.2882	8888	0.78	1
215.2952	8888	0.79	1
215.3021	8888	0.79	1
215.3091	8888	0.81	1
215.316	8888	0.82	1
215.3229	8888	0.83	1
215.3299	8888	0.83	1
215.3368	8888	0.83	1
215.3438	8888	0.84	1
215.3507	8888	0.85	1
215.3577	8888	0.85	1
215.3646	8888	0.85	1
215.4077	8888	0.69	1
215.4146	8888	0.7	1
215.4216	8888	0.71	1
215.4285	8888	0.7	1
215.4354	8888	0.71	1
215.4424	8888	0.71	1
215.4493	8888	0.64	1
215.4563	8888	0.69	1
215.4632	8888	0.68	1
215.4702	8888	0.7	1
215.4771	8888	0.68	1
215.4841	8888	0.66	1
215.491	8888	0.65	1
215.4979	8888	0.64	1
215.5049	8888	0.63	1
215.5118	8888	0.62	1
215.5188	8888	0.61	1
215.5257	8888	0.62	1
215.5327	8888	0.64	1
215.5396	8888	0.63	1
215.5466	8888	0.63	1
215.5535	8888	0.63	1
215.5604	8888	0.63	1
215.5674	8888	0.63	1
215.5743	8888	0.63	1
215.5813	8888	0.61	1
215.5882	8888	0.62	1
215.5952	8888	0.62	1
215.6021	8888	0.61	1
215.6091	8888	0.61	1
215.616	8888	0.62	1
215.6229	8888	0.62	1
215.6299	8888	0.6	1
215.6368	8888	0.6	1
215.6438	8888	0.61	1
215.6507	8888	0.61	1
215.6577	8888	0.62	1
215.6646	8888	0.61	1
215.6716	8888	0.62	1
215.6785	8888	0.61	1
215.6854	8888	0.63	1
215.6924	8888	0.64	1
215.6993	8888	0.65	1
215.7063	8888	0.64	1
215.7132	8888	0.63	1
215.7202	8888	0.64	1
215.7271	8888	0.64	1
215.7341	8888	0.66	1
215.741	8888	0.66	1
215.7479	8888	0.67	1
215.7549	8888	0.65	1
215.7618	8888	0.64	1
215.7688	8888	0.61	1
215.7757	8888	0.61	1
215.7827	8888	0.6	1
