24 1001
Beverley Allan and Hugh Coe
 University of East Anglia, Norwich, UK 
 Differential Optical Absorption Spectrometer, Mace Head, Eire 
ACSOE OXICOA EASE'96
1 1
1996 08 01  1997 01 29
0
Time in fractional Julian Day
3
1.0 1.0 1
999 999 999
NITROGEN DIOXIDE (pptv)
ERROR FROM ANALYSIS (pptv)
ERROR FLAG
2
Missing data markers represent poor raw data / hardware problems.   
Detection limit for NO2 is 135 ppt determined from the analysis.   
5   
THIS-FILE-NAME=mh960801.nx4   
THIS-FILE-VERSION=1   
THIS-FILE-ENDS=1996 08 01   
E-MAIL-CONTACT=b.allan@uea.ac.uk   
Jday NO2 Analysis Error Error Flag
214.0027	64.95	140.71	1
214.0098	-4.53	100.36	1
214.0167	0.78	98.78	1
214.0236	-22.97	101.41	1
214.0306	24.85	102.67	1
214.0375	1.83	101.33	1
214.0445	41.04	102.37	1
214.0514	50.35	101.82	1
214.0584	37.05	100.87	1
214.0653	-11.59	102.65	1
214.0723	-48.76	102.56	1
214.0792	-7.43	102.41	1
214.0861	47.67	103.33	1
214.0931	55.49	105.04	1
214.1	5.74	106.83	1
214.107	3.33	106.75	1
214.1139	25.76	106.83	1
214.1209	-34.94	108.03	1
214.1278	25.54	108.37	1
214.1348	38.2	108.1	1
214.1417	89.71	108.85	1
214.1486	110.5	109.87	1
214.1556	111.88	108.17	1
214.1625	178.11	108.32	1
214.1695	102.16	108.13	1
214.1764	130.95	107.52	1
214.1834	100.69	107.75	1
214.1903	135.69	108.36	1
214.1973	127.58	108.24	1
214.2042	95.51	109.06	1
214.2111	40.38	108.02	1
214.2181	59.5	107	1
214.225	68.13	108.73	1
214.232	50.13	107.8	1
214.2389	57.53	108.79	1
214.2459	149.67	110.89	1
214.2528	74.44	111.19	1
214.2604	123.32	110.32	1
214.2674	26.54	113.44	1
214.2743	66.6	114.67	1
214.2813	84.67	115.28	1
214.2882	108.79	114.26	1
214.2952	81.78	116.28	1
214.3021	110.72	117.37	1
214.3091	174.19	115.93	1
214.316	138.51	114.71	1
214.3229	125.39	115.59	1
214.3299	196.04	118.07	1
214.3368	999	999	3
214.3438	192.61	117.26	1
214.3507	238.56	117.61	1
214.3577	244.77	120.1	1
214.3646	337.61	121.7	1
214.3716	563.92	120.41	1
214.3966	309.07	134.78	1
214.4035	323.42	130.7	1
214.4104	304.06	118.72	1
214.4174	336.21	121.19	1
214.4243	294.08	129.21	1
214.4313	292.74	132.95	1
214.4382	270.05	129.09	1
214.4452	340.06	135.01	1
214.4521	414.99	133.73	1
214.4591	404.6	135.64	1
214.466	491.66	135.68	1
214.4729	467	130.73	1
214.4799	439.54	129.99	1
214.4868	353.44	129.75	1
214.4938	386.76	132.38	1
214.5007	232.74	127.39	1
214.5077	236.07	123.13	1
214.5146	154.18	119.55	1
214.5216	165.78	117.03	1
214.5285	199.94	117.96	1
214.5354	205.09	120.24	1
214.5424	185.63	120.45	1
214.5493	221.14	119.59	1
214.5563	196.69	120.98	1
214.5632	167.72	122.82	1
214.5702	184.03	122.9	1
214.5771	269.15	126.18	1
214.5841	352.17	142.41	1
214.591	315.67	124.56	1
214.5979	238.04	125.36	1
214.6049	218.43	119.3	1
214.6118	222	116.62	1
214.6188	225.48	117.82	1
214.6257	223.84	117.01	1
214.6327	156.7	115.43	1
214.6396	127	111	1
214.6466	126.58	108.54	1
214.6535	999	999	3
214.6604	88.73	104.95	1
214.6674	143.39	107.77	1
214.6743	175.6	111.42	1
214.6813	125.16	110.55	1
214.6882	172.12	110.86	1
214.6952	112.85	109.12	1
214.7021	47.65	104.26	1
214.7091	45.06	101.87	1
214.716	115.15	101.62	1
214.7229	66.32	106.81	1
214.7299	45.05	106.28	1
214.7368	33.21	112.59	1
214.7438	86.59	110.52	1
214.7507	110.25	108.57	1
214.7813	121.62	108.35	1
214.7882	-21.12	105.9	1
214.7952	93.88	106.61	1
214.8021	28.24	106.82	1
214.8091	47.43	105.48	1
214.816	89.22	105.28	1
214.8229	55.8	103.66	1
214.8299	117.63	104.28	1
214.8368	189.9	105.94	1
214.8438	189.23	105.01	1
214.8507	94.83	107.53	1
214.8577	68.61	106.51	1
214.8646	140.51	105.47	1
214.8716	93.6	107.59	1
214.8785	83.51	109.6	1
214.8854	99.66	110.3	1
214.8924	167.71	109.9	1
214.8993	177.49	108.81	1
214.9063	131.47	110.91	1
214.9132	77.43	112.87	1
214.9202	111.19	113.67	1
214.9271	132.96	114.6	1
214.9341	130.86	114.75	1
214.941	114.76	114.65	1
214.9479	141.66	114.93	1
214.9549	115.89	114.96	1
214.9618	147.1	117.74	1
214.9688	152.53	115.45	1
214.9757	142.87	116.05	1
214.9827	135.62	117.08	1
214.9896	222.26	116.52	1
214.9966	238.46	117.04	1
