25 1001
Beverley Allan and Hugh Coe
University of East Anglia, Norwich, UK 
Differential Optical Absorption Spectrometer, Mace Head, Eire 
ACSOE OXICOA EASE'96
1 1
1996 08 02  1999 03 31
0
Time in fractional Julian Day
3
1.0 1.0 1
999 999 999
BROMINE OXIDE (pptv)
ERROR FROM ANALYSIS (pptv)
ERROR FLAG
3
Missing data markers represent poor raw data / hardware problems.   
Detection limit for BrO is apprx 2-5 ppt determined from the analysis.   
8888 =concentrations at and below the detection limit (the detection limit has been calculated for each point and is given below)   
5   
THIS-FILE-NAME=mh960802.bm1   
THIS-FILE-VERSION=2   
THIS-FILE-ENDS=1996 08 02   
E-MAIL-CONTACT=b.allan@uea.ac.uk   
Jday BrO Analysis Error Error Flag
215.0034722	8888	0.6	1
215.0103722	8888	0.6	1
215.0173722	8888	0.6	1
215.0242722	8888	0.61	1
215.0312722	8888	0.62	1
215.0381722	8888	0.6	1
215.0451722	8888	0.61	1
215.0520722	8888	0.6	1
215.0590722	8888	0.61	1
215.0659722	999	999	3
215.0728722	8888	0.63	1
215.0798722	8888	0.62	1
215.0867722	8888	0.62	1
215.0937722	8888	0.62	1
215.1006722	8888	0.64	1
215.1076722	8888	0.63	1
215.1145722	8888	0.62	1
215.1215722	8888	0.63	1
215.1284722	8888	0.62	1
215.1353722	8888	0.63	1
215.1423722	8888	0.63	1
215.1492722	999	999	3
215.1562722	8888	0.62	1
215.1631722	8888	0.62	1
215.1701722	8888	0.62	1
215.1770722	8888	0.62	1
215.1840722	8888	0.62	1
215.1909722	8888	0.62	1
215.1978722	8888	0.63	1
215.2048722	8888	0.63	1
215.2117722	8888	0.64	1
215.2187722	8888	0.64	1
215.2256722	8888	0.63	1
215.2326722	8888	0.64	1
215.2395722	8888	0.65	1
215.2465722	8888	0.65	1
215.2534722	8888	0.65	1
215.2603722	8888	0.65	1
215.2673722	8888	0.64	1
215.2742722	8888	0.64	1
215.2812722	8888	0.64	1
215.2881722	8888	0.65	1
215.2951722	8888	0.66	1
215.3020722	8888	0.66	1
215.3090722	8888	0.68	1
215.3159722	8888	0.69	1
215.3228722	8888	0.69	1
215.3298722	8888	0.7	1
215.3367722	8888	0.7	1
215.3437722	8888	0.71	1
215.3506722	8888	0.72	1
215.3576722	8888	0.71	1
215.3645722	8888	0.71	1
215.4076722	8888	0.58	1
215.4145722	8888	0.58	1
215.4215722	8888	0.59	1
215.4284722	8888	0.58	1
215.4353722	8888	0.6	1
215.4423722	8888	0.6	1
215.4492722	8888	0.53	1
215.4562722	8888	0.57	1
215.4631722	8888	0.57	1
215.4701722	8888	0.58	1
215.4770722	8888	0.57	1
215.4840722	8888	0.55	1
215.4909722	8888	0.54	1
215.4978722	8888	0.53	1
215.5048722	8888	0.53	1
215.5117722	8888	0.52	1
215.5187722	8888	0.51	1
215.5256722	8888	0.52	1
215.5326722	8888	0.53	1
215.5395722	8888	0.53	1
215.5465722	8888	0.52	1
215.5534722	8888	0.53	1
215.5603722	8888	0.52	1
215.5673722	8888	0.53	1
215.5742722	8888	0.53	1
215.5812722	8888	0.51	1
215.5881722	8888	0.52	1
215.5951722	8888	0.52	1
215.6020722	8888	0.51	1
215.6090722	8888	0.51	1
215.6159722	8888	0.52	1
215.6228722	8888	0.52	1
215.6298722	8888	0.51	1
215.6367722	8888	0.51	1
215.6437722	8888	0.51	1
215.6506722	8888	0.51	1
215.6576722	8888	0.52	1
215.6645722	8888	0.51	1
215.6715722	8888	0.52	1
215.6784722	8888	0.51	1
215.6853722	8888	0.53	1
215.6923722	8888	0.53	1
215.6992722	8888	0.54	1
215.7062722	8888	0.54	1
215.7131722	8888	0.53	1
215.7201722	8888	0.53	1
215.7270722	8888	0.54	1
215.7340722	8888	0.55	1
215.7409722	8888	0.55	1
215.7478722	8888	0.56	1
215.7548722	8888	0.54	1
215.7617722	8888	0.54	1
215.7687722	8888	0.51	1
215.7756722	8888	0.51	1
215.7826722	8888	0.51	1
