25 1001
Beverley Allan and Hugh Coe
University of East Anglia, Norwich, UK 
Differential Optical Absorption Spectrometer, Mace Head, Eire 
ACSOE OXICOA EASE'96
1 1
1996 08 01  1999 03 31
0
Time in fractional Julian Day
3
1.0 1.0 1
999 999 999
BROMINE OXIDE (pptv)
ERROR FROM ANALYSIS (pptv)
ERROR FLAG
3
Missing data markers represent poor raw data / hardware problems.   
Detection limit for BrO is apprx 2-5 ppt determined from the analysis.   
8888 =concentrations at and below the detection limit (the detection limit has been calculated for each point and is given below)   
5   
THIS-FILE-NAME=mh960801.bm1   
THIS-FILE-VERSION=2   
THIS-FILE-ENDS=1996 08 01   
E-MAIL-CONTACT=b.allan@uea.ac.uk   
Jday BrO Analysis Error Error Flag
214.002772	8888	0.79	1
214.009772	8888	0.56	1
214.016672	8888	0.55	1
214.023572	8888	0.57	1
214.030572	8888	0.58	1
214.037472	8888	0.57	1
214.044472	8888	0.57	1
214.051372	8888	0.57	1
214.058372	8888	0.57	1
214.065272	8888	0.58	1
214.072272	8888	0.57	1
214.079172	8888	0.57	1
214.086072	8888	0.58	1
214.093072	8888	0.59	1
214.099972	8888	0.6	1
214.106972	8888	0.6	1
214.113872	8888	0.6	1
214.120872	8888	0.61	1
214.127772	8888	0.61	1
214.134772	8888	0.61	1
214.141672	8888	0.61	1
214.148572	8888	0.62	1
214.155572	8888	0.61	1
214.162472	8888	0.61	1
214.169472	8888	0.61	1
214.176372	8888	0.6	1
214.183372	8888	0.6	1
214.190272	8888	0.61	1
214.197272	8888	0.61	1
214.204172	8888	0.61	1
214.211072	8888	0.61	1
214.218072	8888	0.6	1
214.224972	8888	0.61	1
214.231972	8888	0.6	1
214.238872	8888	0.61	1
214.245872	8888	0.62	1
214.252772	8888	0.62	1
214.260372	8888	0.62	1
214.267372	8888	0.64	1
214.274272	8888	0.64	1
214.281272	8888	0.65	1
214.288172	8888	0.64	1
214.295172	8888	0.65	1
214.302072	8888	0.66	1
214.309072	8888	0.65	1
214.315972	8888	0.64	1
214.322872	8888	0.65	1
214.329872	8888	0.66	1
214.336772	999	999	3
214.343772	8888	0.66	1
214.350672	8888	0.66	1
214.357672	8888	0.67	1
214.364572	8888	0.68	1
214.371572	8888	0.67	1
214.396572	8888	0.76	1
214.403472	8888	0.73	1
214.410372	8888	0.67	1
214.417372	8888	0.68	1
214.424272	8888	0.72	1
214.431272	8888	0.75	1
214.438172	8888	0.72	1
214.445172	8888	0.76	1
214.452072	8888	0.75	1
214.459072	8888	0.76	1
214.465972	8888	0.76	1
214.472872	8888	0.73	1
214.479872	8888	0.73	1
214.486772	8888	0.73	1
214.493772	8888	0.74	1
214.500672	8888	0.71	1
214.507672	8888	0.69	1
214.514572	8888	0.67	1
214.521572	8888	0.66	1
214.528472	8888	0.66	1
214.535372	8888	0.67	1
214.542372	8888	0.67	1
214.549272	8888	0.67	1
214.556272	8888	0.68	1
214.563172	8888	0.69	1
214.570172	8888	0.69	1
214.577072	8888	0.71	1
214.584072	8888	0.8	1
214.590972	8888	0.7	1
214.597872	8888	0.7	1
214.604872	8888	0.67	1
214.611772	8888	0.65	1
214.618772	8888	0.66	1
214.625672	8888	0.66	1
214.632672	8888	0.65	1
214.639572	8888	0.62	1
214.646572	8888	0.61	1
214.653472	999	999	3
214.660372	8888	0.59	1
214.667372	8888	0.6	1
214.674272	8888	0.62	1
214.681272	8888	0.62	1
214.688172	8888	0.62	1
214.695172	8888	0.61	1
214.702072	8888	0.58	1
214.709072	8888	0.57	1
214.715972	8888	0.57	1
214.722872	8888	0.6	1
214.729872	8888	0.6	1
214.736772	8888	0.63	1
214.743772	8888	0.62	1
214.750672	8888	0.61	1
214.781272	8888	0.61	1
214.788172	8888	0.59	1
214.795172	8888	0.6	1
214.802072	8888	0.6	1
214.809072	8888	0.59	1
214.815972	8888	0.59	1
214.822872	8888	0.58	1
214.829872	8888	0.58	1
214.836772	8888	0.59	1
214.843772	8888	0.59	1
214.850672	8888	0.6	1
214.857672	8888	0.6	1
214.864572	8888	0.59	1
214.871572	8888	0.6	1
214.878472	8888	0.61	1
214.885372	8888	0.62	1
214.892372	8888	0.62	1
214.899272	8888	0.61	1
214.906272	8888	0.62	1
214.913172	8888	0.63	1
214.920172	8888	0.64	1
214.927072	8888	0.64	1
214.934072	8888	0.64	1
214.940972	8888	0.64	1
214.947872	8888	0.64	1
214.954872	8888	0.64	1
214.961772	8888	0.66	1
214.968772	8888	0.65	1
214.975672	8888	0.65	1
214.982672	8888	0.66	1
214.989572	8888	0.65	1
214.996572	8888	0.66	1
