25 1001
Beverley Allan and Hugh Coe
University of East Anglia, Norwich, UK 
Differential Optical Absorption Spectrometer, Mace Head, Eire 
ACSOE OXICOA EASE'96
1 1
1996 08 01  1999 03 31
0
Time in fractional Julian Day
3
1.0 1.0 1
999 999 999
CHLORINE DIOXIDE (OCLO) (pptv)
ERROR FROM ANALYSIS (pptv)
ERROR FLAG
3
Missing data markers represent poor raw data / hardware problems.   
Detection limit for OClO is 2-5 ppt determined from the analysis.   
8888 =concentrations at and below the detection limit (the detection limit has been calculated for each point and is given below)   
5   
THIS-FILE-NAME=mh960801.oc1   
THIS-FILE-VERSION=2   
THIS-FILE-ENDS=1996 08 01   
E-MAIL-CONTACT=b.allan@uea.ac.uk   
Jday OClO Analysis Error Error Flag
214.0028	8888	0.79	1
214.0098	8888	0.563	1
214.0167	8888	0.554	1
214.0236	8888	0.569	1
214.0306	8888	0.576	1
214.0375	8888	0.569	1
214.0445	8888	0.574	1
214.0514	8888	0.571	1
214.0584	8888	0.566	1
214.0653	8888	0.576	1
214.0723	8888	0.575	1
214.0792	8888	0.575	1
214.0861	8888	0.58	1
214.0931	8888	0.589	1
214.1	8888	0.599	1
214.107	8888	0.599	1
214.1139	8888	0.599	1
214.1209	8888	0.606	1
214.1278	8888	0.608	1
214.1348	8888	0.607	1
214.1417	8888	0.611	1
214.1486	8888	0.616	1
214.1556	8888	0.607	1
214.1625	8888	0.608	1
214.1695	8888	0.607	1
214.1764	8888	0.603	1
214.1834	8888	0.605	1
214.1903	8888	0.608	1
214.1973	8888	0.607	1
214.2042	8888	0.612	1
214.2111	8888	0.606	1
214.2181	8888	0.6	1
214.225	8888	0.61	1
214.232	8888	0.605	1
214.2389	8888	0.61	1
214.2459	8888	0.622	1
214.2528	8888	0.624	1
214.2604	8888	0.619	1
214.2674	8888	0.637	1
214.2743	8888	0.643	1
214.2813	8888	0.647	1
214.2882	8888	0.641	1
214.2952	8888	0.652	1
214.3021	8888	0.659	1
214.3091	8888	0.65	1
214.316	8888	0.644	1
214.3229	8888	0.649	1
214.3299	8888	0.662	1
214.3368	999	999	3
214.3438	8888	0.658	1
214.3507	8888	0.66	1
214.3577	8888	0.674	1
214.3646	8888	0.683	1
214.3716	8888	0.676	1
214.3966	8888	0.756	1
214.4035	8888	0.733	1
214.4104	8888	0.666	1
214.4174	8888	0.68	1
214.4243	8888	0.725	1
214.4313	8888	0.746	1
214.4382	8888	0.724	1
214.4452	8888	0.758	1
214.4521	8888	0.75	1
214.4591	8888	0.761	1
214.466	8888	0.761	1
214.4729	8888	0.734	1
214.4799	8888	0.729	1
214.4868	8888	0.728	1
214.4938	8888	0.743	1
214.5007	8888	0.715	1
214.5077	8888	0.691	1
214.5146	8888	0.671	1
214.5216	8888	0.657	1
214.5285	8888	0.662	1
214.5354	8888	0.675	1
214.5424	8888	0.676	1
214.5493	8888	0.671	1
214.5563	8888	0.679	1
214.5632	8888	0.689	1
214.5702	8888	0.69	1
214.5771	8888	0.708	1
214.5841	8888	0.799	1
214.591	8888	0.699	1
214.5979	8888	0.703	1
214.6049	8888	0.669	1
214.6118	8888	0.654	1
214.6188	8888	0.661	1
214.6257	8888	0.657	1
214.6327	8888	0.648	1
214.6396	8888	0.621	1
214.6466	8888	0.609	1
214.6535	999	999	3
214.6604	8888	0.589	1
214.6674	8888	0.605	1
214.6743	8888	0.625	1
214.6813	8888	0.62	1
214.6882	8888	0.622	1
214.6952	8888	0.612	1
214.7021	8888	0.585	1
214.7091	8888	0.572	1
214.716	8888	0.57	1
214.7229	8888	0.599	1
214.7299	8888	0.596	1
214.7368	8888	0.632	1
214.7438	8888	0.62	1
214.7507	8888	0.609	1
214.7813	8888	0.608	1
214.7882	8888	0.594	1
214.7952	8888	0.598	1
214.8021	8888	0.599	1
214.8091	8888	0.592	1
214.816	8888	0.591	1
214.8229	8888	0.582	1
214.8299	8888	0.585	1
214.8368	8888	0.594	1
214.8438	8888	0.589	1
214.8507	8888	0.603	1
214.8577	8888	0.598	1
214.8646	8888	0.592	1
214.8716	8888	0.604	1
214.8785	8888	0.615	1
214.8854	8888	0.619	1
214.8924	8888	0.617	1
214.8993	8888	0.611	1
214.9063	8888	0.622	1
214.9132	8888	0.633	1
214.9202	8888	0.638	1
214.9271	8888	0.643	1
214.9341	8888	0.644	1
214.941	8888	0.643	1
214.9479	8888	0.645	1
214.9549	8888	0.645	1
214.9618	8888	0.661	1
214.9688	8888	0.648	1
214.9757	8888	0.651	1
214.9827	8888	0.657	1
214.9896	8888	0.654	1
214.9966	8888	0.657	1
