22 1001
Lightman Paul
ACRU Imperial College, TTC, Silwood Park, Ascot, Berks SL5 7PW
Rosemount Outside Air Temperature Sensor
ACSOE OXICOA EASE96
1 1
1996 7 24 1997 2 28
0  (1 gap between logged files)
Time in fractional Julian day (GMT Timebase)
2
1 1
999999 99.9
Time GMT hhmmss
Outside Air Temperature Deg Celsius
1
1 data gap between logged files
6
THIS-FILE-NAME=js960724.mt5
THIS-FILE-VERSION=1
THIS-FILE-ENDS=1996 07 24
E-MAIL-CONTACT=p.lightman@ic.ac.uk
Time GMT   Time GMT  Air T
215.41103    95153    17.3
215.41106    95155    17.3
215.41107    95157    17.3
215.41110    95159    17.3
215.41112    95201    17.2
215.41115    95203    17.2
215.41116    95205    17.2
215.41119    95207    17.2
215.41121    95209    17.2
215.41124    95211    17.2
215.41125    95213    17.2
215.41129    95215    17.2
215.41130    95217    17.2
215.41133    95219    17.2
215.41136    95221    17.2
215.41138    95223    17.2
215.41141    95225    17.1
215.41142    95227    17.1
215.41145    95229    17.1
215.41147    95231    17.1
215.41150    95233    17.1
215.41151    95235    17.1
215.41154    95237    17.1
215.41156    95239    17.1
215.41159    95241    17.1
215.41161    95243    17.1
215.41164    95245    17.1
215.41165    95247    17.1
215.41168    95249    17.0
215.41170    95251    17.0
215.41173    95253    17.0
215.41174    95255    17.0
215.41177    95257    17.0
215.41179    95259    17.0
215.41182    95301    17.0
215.41183    95303    17.0
215.41187    95305    17.0
215.41188    95307    17.0
215.41191    95309    17.0
215.41193    95311    17.0
215.41196    95313    16.9
215.41197    95315    16.9
215.41200    95317    16.9
215.41203    95319    16.9
215.41205    95321    16.9
215.41208    95323    16.9
215.41209    95325    16.9
215.41212    95327    16.9
215.41214    95329    16.9
215.41217    95331    16.9
215.41219    95333    16.9
215.41222    95335    16.9
215.41223    95337    16.8
215.41226    95339    16.8
215.41228    95341    16.8
215.41231    95343    16.8
215.41232    95345    16.8
215.41235    95347    16.8
215.41237    95349    16.8
215.41240    95351    16.8
215.41241    95353    16.8
215.41245    95355    16.8
215.41246    95357    16.8
215.41249    95359    16.8
215.41251    95401    16.7
215.41254    95403    16.7
215.41255    95405    16.7
215.41258    95407    16.7
215.41260    95409    16.7
215.41263    95411    16.7
215.41264    95413    16.7
215.41267    95415    16.7
215.41269    95417    16.7
215.41272    95419    16.7
215.41275    95421    16.7
215.41277    95423    16.7
215.41280    95425    16.6
215.41281    95427    16.6
215.41284    95429    16.6
215.41286    95431    16.6
215.41289    95433    16.6
215.41290    95435    16.6
215.41293    95437    16.6
215.41295    95439    16.6
215.41298    95441    16.6
215.41299    95443    16.6
215.41302    95445    16.6
215.41304    95447    16.6
215.41307    95449    16.5
215.41309    95451    16.5
215.41312    95453    16.5
215.41313    95455    16.5
215.41316    95457    16.5
215.41318    95459    16.5
215.41321    95501    16.5
215.41322    95503    16.5
215.41325    95505    16.5
215.41327    95507    16.5
215.41330    95509    16.5
215.41331    95511    16.5
215.41335    95513    16.4
215.41336    95515    16.4
215.41339    95517    16.4
215.41342    95519    16.4
215.41344    95521    16.4
215.41347    95523    16.4
215.41348    95525    16.4
215.41351    95527    16.4
215.41353    95529    16.4
215.41356    95531    16.4
215.41357    95533    16.4
215.41360    95535    16.4
215.41362    95537    16.3
215.41365    95539    16.3
215.41367    95541    16.3
215.41370    95543    16.3
215.41371    95545    16.3
215.41374    95547    16.3
215.41376    95549    16.3
215.41379    95551    16.3
215.41380    95553    16.3
215.41383    95555    16.3
215.41385    95557    16.3
215.41388    95559    16.3
215.41389    95601    16.2
215.41393    95603    16.2
215.41394    95605    16.2
215.41397    95607    16.2
215.41399    95609    16.2
215.41402    95611    16.2
215.41403    95613    16.2
215.41406    95615    16.2
215.41409    95617    16.2
215.41411    95619    16.2
215.41414    95621    16.2
215.41415    95623    16.2
215.41418    95625    16.1
215.41420    95627    16.1
215.41423    95629    16.1
215.41425    95631    16.1
215.41428    95633    16.1
215.41429    95635    16.1
215.41432    95637    16.1
215.41434    95639    16.1
215.41437    95641    16.1
215.41438    95643    16.1
215.41441    95645    16.1
215.41443    95647    16.1
215.41446    95649    16.0
215.41447    95651    16.0
215.41451    95653    16.0
215.41452    95655    16.0
215.41455    95657    16.0
215.41457    95659    16.0
215.41460    95701    16.0
215.41461    95703    16.0
215.41464    95705    16.0
215.41466    95707    16.0
215.41469    95709    16.0
215.41470    95711    16.0
215.41473    95713    15.9
215.41476    95715    15.9
215.41478    95717    15.9
215.41481    95719    15.9
215.41483    95721    15.9
215.41486    95723    15.9
215.41487    95725    15.9
215.41490    95727    15.9
215.41492    95729    15.9
215.41495    95731    15.9
215.41496    95733    15.9
215.41499    95735    15.9
215.41501    95737    15.8
215.41504    95739    15.8
215.41505    95741    15.8
215.41508    95743    15.8
215.41510    95745    15.8
215.41513    95747    15.8
215.41515    95749    15.8
215.41518    95751    15.8
215.41519    95753    15.8
215.41522    95755    15.8
215.41524    95757    15.8
215.41527    95759    15.8
215.41528    95801    15.7
215.41531    95803    15.7
215.41533    95805    15.7
215.41536    95807    15.7
215.41537    95809    15.7
215.41541    95811    15.7
215.41544    95813    15.7
215.41545    95815    15.7
215.41548    95817    15.7
215.41550    95819    15.7
215.41553    95821    15.7
215.41554    95823    15.7
215.41557    95825    15.6
215.41559    95827    15.6
215.41562    95829    15.6
215.41563    95831    15.6
215.41566    95833    15.6
215.41568    95835    15.6
215.41571    95837    15.6
215.41573    95839    15.6
215.41576    95841    15.6
215.41577    95843    15.6
215.41580    95845    15.6
215.41582    95847    15.6
215.41585    95849    15.5
215.41586    95851    15.5
215.41589    95853    15.5
215.41591    95855    15.5
215.41594    95857    15.5
215.41595    95859    15.5
215.41599    95901    15.5
215.41600    95903    15.5
215.41603    95905    15.5
215.41605    95907    15.5
215.41608    95909    15.5
215.41611    95911    15.5
215.41612    95913    15.4
215.41615    95915    15.4
215.41617    95917    15.4
215.41620    95919    15.4
215.41621    95921    15.4
215.41624    95923    15.4
215.41626    95925    15.4
215.41629    95927    15.4
215.41631    95929    15.4
215.41634    95931    15.4
215.41635    95933    15.4
215.41638    95935    15.4
215.41640    95937    15.3
215.41643    95939    15.3
215.41644    95941    15.3
215.41647    95943    15.3
215.41649    95945    15.3
215.41652    95947    15.3
215.41653    95949    15.3
215.41656    95951    15.3
215.41658    95953    15.3
215.41661    95955    15.3
215.41663    99957    15.3
215.41666    99959    15.3
215.41667   100001    15.2
215.41670   100003    15.2
215.41672   100005    15.2
215.41675   100007    15.2
215.41676   100009    15.2
215.41679   100011    15.2
215.41682   100013    15.2
215.41684   100015    15.2
215.41687   100017    15.2
215.41689   100019    15.2
215.41692   100021    15.2
215.41693   100023    15.2
215.41696   100025    15.1
215.41698   100027    15.1
215.41701   100029    15.1
215.41702   100031    15.1
215.41705   100033    15.1
215.41707   100035    15.1
215.41710   100037    15.1
215.41711   100039    15.1
215.41714   100041    15.1
215.41716   100043    15.1
215.41719   100045    15.1
215.41721   100047    15.1
215.41724   100049    15.0
215.41725   100051    15.0
215.41728   100053    15.0
215.41730   100055    15.0
215.41733   100057    15.0
215.41734   100059    15.0
215.41737   100101    15.0
215.41739   100103    14.9
215.41742   100105    14.9
215.41743   100107    14.8
215.41747   100109    14.8
215.41750   100111    14.7
215.41751   100113    14.7
215.41754   100115    14.6
215.41756   100117    14.6
215.41759   100119    14.5
215.41760   100121    14.4
215.41763   100123    14.4
215.41765   100125    14.3
215.41768   100127    14.3
215.41769   100129    14.2
215.41772   100131    14.2
215.41774   100133    14.1
215.41777   100135    14.1
215.41779   100137    14.0
215.41782   100139    14.0
215.41783   100141    13.9
215.41786   100143    13.8
215.41788   100145    13.7
215.41791   100147    13.7
215.41792   100149    13.6
215.41795   100151    13.5
215.41797   100153    13.4
215.41800   100155    13.3
215.41801   100157    13.3
215.41805   100159    13.2
215.41806   100201    13.1
215.41809   100203    13.0
215.41811   100205    12.9
215.41814   100207    12.8
215.41817   100209    12.7
215.41818   100211    12.6
215.41821   100213    12.5
215.41823   100215    12.4
215.41826   100217    12.2
215.41827   100219    12.1
215.41830   100221    12.0
215.41832   100223    11.9
215.41835   100225    11.8
215.41837   100227    11.6
215.41840   100229    11.5
215.41841   100231    11.4
215.41844   100233    11.3
215.41846   100235    11.2
215.41849   100237    11.1
215.41850   100239    11.0
215.41853   100241    10.9
215.41855   100243    10.8
215.41858   100245    10.8
215.41859   100247    10.7
215.41862   100249    10.6
215.41864   100251    10.6
215.41867   100253    10.5
215.41869   100255    10.5
215.41872   100257    10.4
215.41873   100259    10.3
215.41876   100301    10.3
215.41878   100303    10.2
215.41881   100305    10.1
215.41884   100307    10.1
215.41885   100309    10.0
215.41888   100311     9.9
215.41890   100313     9.9
215.41893   100315     9.8
215.41895   100317     9.7
215.41898   100319     9.7
215.41899   100321     9.6
215.41902   100323     9.5
215.41904   100325     9.5
215.41907   100327     9.4
215.41908   100329     9.4
215.41911   100331     9.3
215.41913   100333     9.2
215.41916   100335     9.2
215.41917   100337     9.1
215.41920   100339     9.0
215.41922   100341     9.0
215.41925   100343     8.9
215.41927   100345     8.8
215.41930   100347     8.7
215.41931   100349     8.7
215.41934   100351     8.6
215.41936   100353     8.5
215.41939   100355     8.4
215.41940   100357     8.3
215.41943   100359     8.3
215.41945   100401     8.2
215.41948   100403     8.1
215.41951   100405     8.0
215.41953   100407     8.0
215.41956   100409     8.0
215.41957   100411     8.0
215.41960   100413     8.0
215.41962   100415     8.1
215.41965   100417     8.1
215.41966   100419     8.1
215.41969   100421     8.2
215.41971   100423     8.2
215.41974   100425     8.2
215.41975   100427     8.2
215.41978   100429     8.3
215.41980   100431     8.3
215.41983   100433     8.3
215.41985   100435     8.4
215.41988   100437     8.4
215.41989   100439     8.4
215.41992   100441     8.5
215.41994   100443     8.5
215.41997   100445     8.5
215.41998   100447     8.5
215.42001   100449     8.6
215.42003   100451     8.6
215.42006   100453     8.6
215.42007   100455     8.7
215.42010   100457     8.7
215.42012   100459     8.7
215.42015   100501     8.8
215.42017   100503     8.8
215.42020   100505     8.8
215.42023   100507     8.8
215.42024   100509     8.9
215.42027   100511     8.9
215.42029   100513     8.9
215.42032   100515     9.0
215.42033   100517     9.0
215.42036   100519     9.0
215.42038   100521     9.0
215.42041   100523     9.0
215.42043   100525     9.0
215.42046   100527     9.0
215.42047   100529     9.0
215.42050   100531     9.0
215.42052   100533     9.0
215.42055   100535     9.0
215.42056   100537     9.0
215.42059   100539     9.0
215.42061   100541     9.0
215.42064   100543     9.0
215.42065   100545     9.0
215.42068   100547     9.0
215.42070   100549     9.0
215.42073   100551     9.0
215.42075   100553     9.0
215.42078   100555     9.0
215.42079   100557     9.0
215.42082   100559     9.0
215.42084   100601     9.0
215.42087   100603     9.0
215.42090   100605     9.0
215.42091   100607     9.0
215.42094   100609     9.0
215.42096   100611     9.0
215.42099   100613     9.0
215.42101   100615     9.0
215.42104   100617     9.0
215.42105   100619     9.0
215.42108   100621     9.0
215.42110   100623     9.0
215.42113   100625     9.0
215.42114   100627     9.0
215.42117   100629     9.0
215.42119   100631     8.9
215.42122   100633     8.9
215.42123   100635     8.8
215.42126   100637     8.8
215.42128   100639     8.7
215.42131   100641     8.6
215.42133   100643     8.6
215.42136   100645     8.5
215.42137   100647     8.5
215.42140   100649     8.4
215.42142   100651     8.4
215.42145   100653     8.3
215.42146   100655     8.2
215.42149   100657     8.2
215.42151   100659     8.1
215.42154   100701     8.1
215.42157   100703     8.0
215.42159   100705     8.0
215.42162   100707     8.0
215.42163   100709     8.0
215.42166   100711     8.0
215.42168   100713     8.0
215.42171   100715     8.0
215.42172   100717     8.0
215.42175   100719     8.0
215.42177   100721     8.0
215.42180   100723     8.0
215.42181   100725     8.0
215.42184   100727     8.0
215.42186   100729     8.0
215.42189   100731     8.0
215.42191   100733     8.0
215.42194   100735     8.0
215.42195   100737     8.0
215.42198   100739     8.0
215.42200   100741     8.0
215.42203   100743     8.0
215.42204   100745     8.0
215.42207   100747     8.0
215.42209   100749     8.0
215.42212   100751     8.0
215.42213   100753     8.0
215.42216   100755     8.0
215.42218   100757     8.0
215.42221   100759     8.0
215.42224   100801     8.0
215.42226   100803     8.0
215.42229   100805     8.0
215.42230   100807     8.0
215.42233   100809     8.0
215.42235   100811     8.0
215.42238   100813     8.0
215.42239   100815     8.0
215.42242   100817     8.0
215.42244   100819     8.0
215.42247   100821     8.0
215.42249   100823     8.0
215.42252   100825     8.0
215.42253   100827     8.0
215.42256   100829     8.0
215.42258   100831     8.0
215.42261   100833     8.0
215.42262   100835     8.0
215.42265   100837     8.0
215.42267   100839     8.0
215.42270   100841     8.0
215.42271   100843     8.0
215.42274   100845     8.0
215.42276   100847     8.0
215.42279   100849     8.0
215.42281   100851     8.0
215.42284   100853     8.0
215.42285   100855     8.0
215.42288   100857     7.9
215.42291   100859     7.9
215.42293   100901     7.8
215.42296   100903     7.7
215.42297   100905     7.7
215.42300   100907     7.6
215.42302   100909     7.6
215.42305   100911     7.5
215.42307   100913     7.4
215.42310   100915     7.4
215.42311   100917     7.3
215.42314   100919     7.3
215.42316   100921     7.2
215.42319   100923     7.1
215.42320   100925     7.1
215.42323   100927     7.0
215.42325   100929     7.0
215.42328   100931     6.9
215.42329   100933     6.9
215.42332   100935     6.8
215.42334   100937     6.8
215.42337   100939     6.7
215.42339   100941     6.6
215.42342   100943     6.6
215.42343   100945     6.5
215.42346   100947     6.5
215.42348   100949     6.4
215.42351   100951     6.4
215.42352   100953     6.3
215.42355   100955     6.3
215.42358   100957     6.2
215.42360   100959     6.2
215.42363   101001     6.1
215.42365   101003     6.1
215.42368   101005     6.0
215.42369   101007     6.0
215.42372   101009     6.0
215.42374   101011     6.0
215.42377   101013     6.0
215.42378   101015     6.0
215.42381   101017     6.0
215.42383   101019     6.0
215.42386   101021     6.0
215.42387   101023     6.0
215.42390   101025     6.0
215.42392   101027     6.0
215.42395   101029     6.0
215.42397   101031     6.0
215.42400   101033     6.0
215.42401   101035     6.0
215.42404   101037     6.0
215.42406   101039     6.0
215.42409   101041     6.0
215.42410   101043     6.0
215.42413   101045     6.0
215.42415   101047     6.0
215.42418   101049     6.0
215.42419   101051     6.0
215.42422   101053     6.0
215.42424   101055     6.0
215.42427   101057     6.0
215.42430   101059     6.0
215.42432   101101     6.0
215.42435   101103     6.0
215.42436   101105     6.0
215.42439   101107     6.0
215.42441   101109     6.0
215.42444   101111     6.0
215.42445   101113     6.0
215.42448   101115     6.0
215.42450   101117     6.0
215.42453   101119     6.0
215.42455   101121     6.0
215.42458   101123     6.0
215.42459   101125     6.0
215.42462   101127     6.0
215.42464   101129     6.0
215.42467   101131     6.0
215.42468   101133     6.0
215.42471   101135     6.0
215.42473   101137     6.0
215.42476   101139     6.0
215.42477   101141     6.0
215.42480   101143     6.0
215.42482   101145     6.0
215.42485   101147     6.0
215.42487   101149     6.0
215.42490   101151     6.0
215.42491   101153     6.0
215.42494   101155     6.0
215.42497   101157     6.0
215.42499   101159     6.0
215.42502   101201     6.0
215.42503   101203     6.0
215.42506   101205     6.0
215.42508   101207     6.0
215.42511   101209     6.0
215.42513   101211     6.0
215.42516   101213     6.0
215.42517   101215     6.0
215.42520   101217     6.0
215.42522   101219     6.0
215.42525   101221     6.0
215.42526   101223     6.0
215.42529   101225     6.0
215.42531   101227     6.0
215.42534   101229     6.0
215.42535   101231     6.0
215.42538   101233     6.0
215.42540   101235     6.0
215.42543   101237     6.0
215.42545   101239     6.0
215.42548   101241     6.0
215.42549   101243     6.0
215.42552   101245     6.0
215.42554   101247     6.0
215.42557   101249     6.0
215.42558   101251     6.0
215.42561   101253     6.0
215.42564   101255     6.0
215.42566   101257     6.0
215.42569   101259     6.0
215.42570   101301     6.0
215.42574   101303     6.0
215.42575   101305     6.0
215.42578   101307     6.0
215.42580   101309     6.0
215.42583   101311     6.0
215.42584   101313     6.0
215.42587   101315     6.0
215.42589   101317     6.0
215.42592   101319     6.0
215.42593   101321     6.0
215.42596   101323     6.0
215.42598   101325     6.0
215.42601   101327     6.0
215.42603   101329     6.0
215.42606   101331     6.0
215.42607   101333     6.0
215.42610   101335     6.0
215.42612   101337     6.0
215.42615   101339     6.0
215.42616   101341     6.0
215.42619   101343     6.0
215.42621   101345     6.0
215.42624   101347     6.0
215.42625   101349     6.0
215.42628   101351     6.0
215.42632   101353     6.0
215.42633   101355     6.0
215.42636   101357     6.0
215.42638   101359     6.0
215.42641   101401     6.0
215.42642   101403     6.0
215.42645   101405     6.0
215.42647   101407     6.0
215.42650   101409     6.0
215.42651   101411     6.0
215.42654   101413     6.0
215.42656   101415     6.0
215.42659   101417     6.0
215.42661   101419     6.0
215.42664   101421     6.0
215.42665   101423     6.0
215.42668   101425     6.0
215.42670   101427     6.0
215.42673   101429     6.0
215.42674   101431     6.0
215.42677   101433     6.0
215.42679   101435     6.0
215.42682   101437     6.0
215.42683   101439     6.0
215.42686   101441     6.0
215.42688   101443     6.0
215.42691   101445     6.0
215.42693   101447     6.0
215.42696   101449     6.0
215.42699   101451     6.0
215.42700   101453     6.0
215.42703   101455     6.0
215.42705   101457     6.0
215.42708   101459     6.0
215.42709   101501     6.0
215.42712   101503     6.0
215.42714   101505     6.0
215.42717   101507     6.0
215.42719   101509     6.0
215.42722   101511     6.0
215.42723   101513     6.0
215.42726   101515     6.0
215.42728   101517     6.0
215.42731   101519     6.0
215.42732   101521     6.0
215.42735   101523     6.0
215.42737   101525     6.0
215.42740   101527     6.0
215.42741   101529     6.0
215.42744   101531     6.0
215.42746   101533     6.0
215.42749   101535     6.0
215.42751   101537     6.0
215.42754   101539     6.0
215.42755   101541     6.0
215.42758   101543     6.0
215.42760   101545     6.0
215.42763   101547     6.0
215.42766   101549     6.0
215.42767   101551     6.0
215.42770   101553     6.0
215.42772   101555     6.0
215.42775   101557     6.0
215.42776   101559     6.0
215.42780   101601     6.0
215.42781   101603     6.0
215.42784   101605     6.0
215.42786   101607     6.0
215.42789   101609     6.0
215.42790   101611     6.0
215.42793   101613     6.0
215.42795   101615     6.0
215.42798   101617     6.0
215.42799   101619     6.0
215.42802   101621     6.0
215.42804   101623     6.0
215.42807   101625     6.0
215.42809   101627     6.0
215.42812   101629     6.0
215.42813   101631     6.0
215.42816   101633     6.0
215.42818   101635     6.0
215.42821   101637     6.0
215.42822   101639     6.0
215.42825   101641     6.0
215.42827   101643     6.0
215.42830   101645     6.0
215.42831   101647     6.0
215.42834   101649     6.0
215.42838   101651     6.0
215.42839   101653     6.0
215.42842   101655     6.0
215.42844   101657     6.0
215.42847   101659     6.0
215.42848   101701     6.0
215.42851   101703     6.0
215.42853   101705     6.0
215.42856   101707     6.0
215.42857   101709     6.0
215.42860   101711     6.0
215.42862   101713     6.0
215.42865   101715     6.0
215.42867   101717     6.0
215.42870   101719     6.0
215.42871   101721     6.0
215.42874   101723     6.0
215.42876   101725     6.0
215.42879   101727     6.0
215.42880   101729     6.0
215.42883   101731     6.0
215.42885   101733     6.0
215.42888   101735     6.0
215.42889   101737     6.0
215.42892   101739     6.0
215.42894   101741     6.0
215.42897   101743     6.0
215.42899   101745     6.0
215.42902   101747     6.0
215.42905   101749     6.0
215.42906   101751     6.0
215.42909   101753     6.0
215.42911   101755     6.0
215.42914   101757     6.0
215.42915   101759     6.0
215.42918   101801     6.0
215.42920   101803     6.0
215.42923   101805     6.0
215.42924   101807     6.0
215.42928   101809     6.0
215.42929   101811     6.0
215.42932   101813     6.0
215.42934   101815     6.0
215.42937   101817     6.0
215.42938   101819     6.0
215.42941   101821     6.0
215.42943   101823     6.0
215.42946   101825     6.0
215.42947   101827     6.0
215.42950   101829     6.0
215.42952   101831     6.0
215.42955   101833     6.0
215.42957   101835     6.0
215.42960   101837     6.0
215.42961   101839     6.0
215.42964   101841     6.0
215.42966   101843     6.0
215.42969   101845     6.0
215.42972   101847     6.0
215.42973   101849     6.0
215.42976   101851     6.0
215.42978   101853     6.0
215.42981   101855     6.0
215.42982   101857     6.0
215.42986   101859     6.0
215.42987   101901     6.0
215.42990   101903     6.0
215.42992   101905     6.0
215.42995   101907     6.0
215.42996   101909     6.0
215.42999   101911     6.0
215.43001   101913     6.0
215.43004   101915     6.0
215.43005   101917     6.0
215.43008   101919     6.0
215.43010   101921     6.0
215.43013   101923     6.0
215.43015   101925     6.0
215.43018   101927     6.0
215.43019   101929     6.0
215.43022   101931     6.0
215.43024   101933     6.0
215.43027   101935     6.0
215.43028   101937     6.0
215.43031   101939     6.0
215.43033   101941     6.0
215.43036   101943     6.0
215.43039   101945     6.0
215.43040   101947     6.0
215.43044   101949     6.0
215.43045   101951     6.0
215.43048   101953     6.0
215.43050   101955     6.0
215.43053   101957     6.0
215.43054   101959     6.0
215.43057   102001     6.0
215.43059   102003     6.0
215.43062   102005     6.0
215.43063   102007     6.0
215.43066   102009     6.0
215.43068   102011     6.0
215.43071   102013     6.0
215.43073   102015     6.0
215.43076   102017     6.0
215.43077   102019     6.0
215.43080   102021     6.0
215.43082   102023     6.0
215.43085   102025     6.0
215.43086   102027     6.0
215.43089   102029     6.0
215.43091   102031     6.0
215.43094   102033     6.0
215.43095   102035     6.0
215.43098   102037     6.0
215.43100   102039     6.0
215.43103   102041     6.0
215.43106   102043     6.0
215.43108   102045     6.0
215.43111   102047     6.0
215.43112   102049     6.0
215.43115   102051     6.0
215.43117   102053     6.0
215.43120   102055     6.0
215.43121   102057     6.0
215.43124   102059     6.0
215.43126   102101     6.0
215.43129   102103     6.0
215.43130   102105     6.0
215.43134   102107     6.0
215.43135   102109     6.0
215.43138   102111     6.0
215.43140   102113     6.0
215.43143   102115     6.0
215.43144   102117     6.0
215.43147   102119     6.0
215.43149   102121     6.0
215.43152   102123     6.0
215.43153   102125     6.0
215.43156   102127     6.0
215.43158   102129     6.0
215.43161   102131     6.0
215.43163   102133     6.0
215.43166   102135     6.0
215.43167   102137     6.0
215.43170   102139     6.0
215.43173   102141     6.0
215.43175   102143     6.0
215.43178   102145     6.0
215.43179   102147     6.0
215.43182   102149     6.0
215.43184   102151     6.0
215.43187   102153     6.0
215.43188   102155     6.0
215.43192   102157     6.0
215.43193   102159     6.0
215.43196   102201     6.0
215.43198   102203     6.0
215.43201   102205     6.0
215.43202   102207     6.0
215.43205   102209     6.0
215.43207   102211     6.0
215.43210   102213     6.0
215.43211   102215     6.0
215.43214   102217     6.0
215.43216   102219     6.0
215.43219   102221     6.0
215.43221   102223     6.0
215.43224   102225     6.0
215.43225   102227     6.0
215.43228   102229     6.0
215.43230   102231     6.0
215.43233   102233     6.0
215.43234   102235     6.0
215.43237   102237     6.0
215.43239   102239     6.0
215.43242   102241     6.0
215.43245   102243     6.0
215.43246   102245     6.0
215.43250   102247     6.0
215.43251   102249     6.0
215.43254   102251     6.0
215.43256   102253     6.0
215.43259   102255     6.0
215.43260   102257     6.0
215.43263   102259     6.0
215.43265   102301     6.0
215.43268   102303     6.0
215.43269   102305     6.0
215.43272   102307     6.0
215.43274   102309     6.0
215.43277   102311     6.0
215.43279   102313     6.0
215.43282   102315     6.0
215.43283   102317     6.0
215.43286   102319     6.0
215.43288   102321     6.0
215.43291   102323     6.0
215.43292   102325     6.0
215.43295   102327     6.0
215.43297   102329     6.0
215.43300   102331     6.0
215.43301   102333     6.0
215.43304   102335     6.0
215.43306   102337     6.0
215.43309   102339     6.0
215.43312   102341     6.0
215.43314   102343     6.0
215.43317   102345     6.0
215.43318   102347     6.0
215.43321   102349     6.0
215.43323   102351     6.0
215.43326   102353     6.0
215.43327   102355     6.0
215.43330   102357     6.0
215.43332   102359     6.0
215.43335   102401     6.0
215.43336   102403     6.0
215.43340   102405     6.0
215.43341   102407     6.0
215.43344   102409     6.0
215.43346   102411     6.0
215.43349   102413     6.0
215.43350   102415     6.0
215.43353   102417     6.0
215.43355   102419     6.0
215.43358   102421     6.0
215.43359   102423     6.0
215.43362   102425     6.0
215.43364   102427     6.0
215.43367   102429     6.0
215.43369   102431     6.0
215.43372   102433     6.0
215.43373   102435     6.0
215.43376   102437     6.0
215.43379   102439     6.0
215.43381   102441     6.0
215.43384   102443     6.0
215.43385   102445     6.0
215.43388   102447     6.0
215.43390   102449     6.0
215.43393   102451     6.0
215.43394   102453     6.0
215.43398   102455     6.0
215.43399   102457     6.0
215.43402   102459     6.0
215.43404   102501     6.0
215.43407   102503     6.0
215.43408   102505     6.0
215.43411   102507     6.0
215.43413   102509     6.0
215.43416   102511     6.0
215.43417   102513     6.0
215.43420   102515     6.0
215.43422   102517     6.0
215.43425   102519     6.0
215.43427   102521     6.0
215.43430   102523     6.0
215.43431   102525     6.0
215.43434   102527     6.0
215.43436   102529     6.0
215.43439   102531     6.0
215.43440   102533     6.0
215.43443   102535     6.0
215.43446   102537     6.0
215.43448   102539     6.0
215.43451   102541     6.0
215.43452   102543     6.0
215.43456   102545     6.0
215.43457   102547     6.0
215.43460   102549     6.0
215.43462   102551     6.0
215.43465   102553     6.0
215.43466   102555     6.0
215.43469   102557     6.0
215.43471   102559     6.0
215.43474   102601     6.0
215.43475   102603     6.0
215.43478   102605     6.0
215.43480   102607     6.0
215.43483   102609     6.0
215.43484   102611     6.0
215.43488   102613     6.0
215.43489   102615     6.0
215.43492   102617     6.0
215.43494   102619     6.0
215.43497   102621     6.0
215.43498   102623     6.0
215.43501   102625     6.0
215.43503   102627     6.0
215.43506   102629     6.0
215.43507   102631     6.0
215.43510   102633     6.0
215.43513   102635     6.0
215.43515   102637     6.0
215.43518   102639     6.0
215.43520   102641     6.0
215.43523   102643     6.0
215.43524   102645     6.0
215.43527   102647     6.0
215.43529   102649     6.0
215.43532   102651     6.0
215.43533   102653     6.0
215.43536   102655     6.0
215.43538   102657     6.0
215.43541   102659     6.0
215.43542   102701     6.0
215.43546   102703     6.0
215.43547   102705     6.0
215.43550   102707     6.0
215.43552   102709     6.0
215.43555   102711     6.0
215.43556   102713     6.0
215.43559   102715     6.0
215.43561   102717     6.0
215.43564   102719     6.0
215.43565   102721     6.0
215.43568   102723     6.0
215.43570   102725     6.0
215.43573   102727     6.0
215.43575   102729     6.0
215.43578   102731     6.0
215.43579   102733     6.0
215.43582   102735     6.0
215.43585   102737     6.0
215.43587   102739     6.0
215.43590   102741     6.0
215.43591   102743     6.0
215.43594   102745     6.0
215.43596   102747     6.0
215.43599   102749     6.0
215.43600   102751     6.0
215.43604   102753     6.0
215.43605   102755     6.0
215.43608   102757     6.0
215.43610   102759     6.0
215.43613   102801     6.0
215.43614   102803     6.0
215.43617   102805     6.0
215.43619   102807     6.0
215.43622   102809     6.0
215.43623   102811     6.0
215.43626   102813     6.0
215.43628   102815     6.0
215.43631   102817     6.0
215.43633   102819     6.0
215.43636   102821     6.0
215.43637   102823     6.0
215.43640   102825     6.0
215.43642   102827     6.0
215.43645   102829     6.0
215.43646   102831     6.0
215.43649   102833     6.0
215.43652   102835     6.0
215.43654   102837     6.0
215.43657   102839     6.0
215.43658   102841     6.0
215.43661   102843     6.0
215.43663   102845     6.0
215.43666   102847     6.0
215.43668   102849     6.0
215.43671   102851     6.0
215.43672   102853     6.0
215.43675   102855     6.0
215.43677   102857     6.0
215.43680   102859     6.0
215.43681   102901     6.0
215.43684   102903     6.0
215.43686   102905     6.0
215.43689   102907     6.0
215.43690   102909     6.0
215.43694   102911     6.0
215.43695   102913     6.0
215.43698   102915     6.0
215.43700   102917     6.0
215.43703   102919     6.0
215.43704   102921     6.0
215.43707   102923     6.0
215.43709   102925     6.0
215.43712   102927     6.0
215.43713   102929     6.0
215.43716   102931     6.0
215.43719   102933     6.0
215.43721   102935     6.0
215.43724   102937     6.0
215.43726   102939     6.0
215.43729   102941     6.0
215.43730   102943     6.0
215.43733   102945     6.0
215.43735   102947     6.0
215.43738   102949     6.0
215.43739   102951     6.0
215.43742   102953     6.0
215.43744   102955     6.0
215.43747   102957     6.0
215.43748   102959     6.0
215.43752   103001     6.0
215.43753   103003     6.0
215.43756   103005     6.0
215.43758   103007     6.0
215.43761   103009     6.0
215.43762   103011     6.0
215.43765   103013     6.0
215.43767   103015     6.0
215.43770   103017     6.0
215.43771   103019     6.0
215.43774   103021     6.0
215.43776   103023     6.0
215.43779   103025     6.0
215.43781   103027     6.0
215.43784   103029     6.0
215.43787   103031     6.0
215.43788   103033     6.0
215.43791   103035     6.0
215.43793   103037     6.0
215.43796   103039     6.0
215.43797   103041     6.0
215.43800   103043     6.0
215.43802   103045     6.1
215.43805   103047     6.1
215.43806   103049     6.1
215.43810   103051     6.1
215.43811   103053     6.2
215.43814   103055     6.2
215.43816   103057     6.2
215.43819   103059     6.2
215.43820   103101     6.3
215.43823   103103     6.3
215.43825   103105     6.3
215.43828   103107     6.3
215.43829   103109     6.3
215.43832   103111     6.4
215.43834   103113     6.4
215.43837   103115     6.4
215.43839   103117     6.4
215.43842   103119     6.5
215.43843   103121     6.5
215.43846   103123     6.5
215.43848   103125     6.5
215.43851   103127     6.6
215.43854   103129     6.6
215.43855   103131     6.6
215.43858   103133     6.6
215.43860   103135     6.6
215.43863   103137     6.7
215.43864   103139     6.7
215.43867   103141     6.7
215.43869   103143     6.7
215.43872   103145     6.8
215.43874   103147     6.8
215.43877   103149     6.8
215.43878   103151     6.8
215.43881   103153     6.9
215.43883   103155     6.9
215.43886   103157     6.9
215.43887   103159     6.9
215.43890   103201     6.9
215.43892   103203     7.0
215.43895   103205     7.0
215.43896   103207     7.0
215.43900   103209     7.0
215.43901   103211     7.0
215.43904   103213     7.0
215.43906   103215     7.0
215.43909   103217     7.0
215.43910   103219     7.0
215.43913   103221     7.0
215.43915   103223     7.0
215.43918   103225     7.0
215.43921   103227     7.0
215.43922   103229     7.0
215.43925   103231     7.0
215.43927   103233     6.9
215.43930   103235     6.9
215.43932   103237     6.8
215.43935   103239     6.8
215.43936   103241     6.7
215.43939   103243     6.6
215.43941   103245     6.6
215.43944   103247     6.5
215.43945   103249     6.5
215.43948   103251     6.4
215.43950   103253     6.4
215.43953   103255     6.3
215.43954   103257     6.2
215.43958   103259     6.2
215.43959   103301     6.1
215.43962   103303     6.1
215.43964   103305     6.0
215.43967   103307     5.9
215.43968   103309     5.9
215.43971   103311     5.8
215.43973   103313     5.7
215.43976   103315     5.7
215.43977   103317     5.6
215.43980   103319     5.5
215.43982   103321     5.4
215.43985   103323     5.4
215.43987   103325     5.3
215.43990   103327     5.2
215.43993   103329     5.2
215.43994   103331     5.1
215.43997   103333     5.0
215.43999   103335     5.0
215.44002   103337     5.0
215.44003   103339     5.1
215.44006   103341     5.1
215.44008   103343     5.1
215.44011   103345     5.2
215.44012   103347     5.2
215.44016   103349     5.2
215.44017   103351     5.2
215.44020   103353     5.3
215.44022   103355     5.3
215.44025   103357     5.3
215.44026   103359     5.3
215.44029   103401     5.4
215.44031   103403     5.4
215.44034   103405     5.4
215.44035   103407     5.5
215.44038   103409     5.5
215.44040   103411     5.5
215.44043   103413     5.5
215.44044   103415     5.6
215.44048   103417     5.6
215.44049   103419     5.6
215.44052   103421     5.7
215.44054   103423     5.7
215.44057   103425     5.7
215.44060   103427     5.7
215.44061   103429     5.8
215.44064   103431     5.8
215.44066   103433     5.8
215.44069   103435     5.9
215.44070   103437     5.9
215.44073   103439     5.9
215.44075   103441     5.9
215.44078   103443     6.0
215.44080   103445     6.0
215.44083   103447     6.0
215.44084   103449     6.0
215.44087   103451     6.1
215.44089   103453     6.1
215.44092   103455     6.1
215.44093   103457     6.2
215.44096   103459     6.2
215.44098   103501     6.2
215.44101   103503     6.2
215.44102   103505     6.3
215.44106   103507     6.3
215.44107   103509     6.3
215.44110   103511     6.4
215.44112   103513     6.4
215.44115   103515     6.4
215.44116   103517     6.4
215.44119   103519     6.5
215.44121   103521     6.5
215.44124   103523     6.5
215.44127   103525     6.6
215.44128   103527     6.6
215.44131   103529     6.6
215.44133   103531     6.6
215.44136   103533     6.7
215.44138   103535     6.7
215.44141   103537     6.7
215.44142   103539     6.7
215.44145   103541     6.8
215.44147   103543     6.8
215.44150   103545     6.8
215.44151   103547     6.9
215.44154   103549     6.9
215.44156   103551     6.9
215.44159   103553     6.9
215.44160   103555     7.0
215.44164   103557     7.0
215.44165   103559     7.0
215.44168   103601     7.0
215.44170   103603     7.0
215.44173   103605     7.0
215.44174   103607     7.0
215.44177   103609     7.0
215.44179   103611     7.0
215.44182   103613     7.0
215.44183   103615     7.0
215.44186   103617     7.0
215.44188   103619     7.0
215.44191   103621     7.0
215.44194   103623     7.0
215.44196   103625     7.0
215.44199   103627     7.0
215.44200   103629     7.0
215.44203   103631     7.0
215.44205   103633     7.1
215.44208   103635     7.1
215.44209   103637     7.2
215.44212   103639     7.2
215.44214   103641     7.3
215.44217   103643     7.3
215.44218   103645     7.3
215.44221   103647     7.4
215.44223   103649     7.4
215.44226   103651     7.5
215.44228   103653     7.5
215.44231   103655     7.6
215.44232   103657     7.6
215.44235   103659     7.7
215.44237   103701     7.7
215.44240   103703     7.8
215.44241   103705     7.8
215.44244   103707     7.8
215.44246   103709     7.9
215.44249   103711     7.9
215.44250   103713     8.0
215.44254   103715     8.0
215.44255   103717     8.0
215.44258   103719     8.0
215.44261   103721     8.0
215.44263   103723     8.0
215.44266   103725     8.0
215.44267   103727     8.0
215.44270   103729     8.0
215.44272   103731     8.0
215.44275   103733     8.0
215.44276   103735     8.0
215.44279   103737     8.0
215.44281   103739     8.0
215.44284   103741     8.0
215.44286   103743     8.0
215.44289   103745     8.0
215.44290   103747     8.0
215.44293   103749     8.0
215.44295   103751     8.0
215.44298   103753     8.0
215.44299   103755     8.0
215.44302   103757     8.0
215.44304   103759     8.0
215.44307   103801     8.0
215.44308   103803     8.0
215.44312   103805     8.0
215.44313   103807     8.0
215.44316   103809     8.0
215.44318   103811     8.0
215.44321   103813     8.0
215.44322   103815     8.0
215.44325   103817     8.0
215.44328   103819     8.0
215.44330   103821     8.0
215.44333   103823     8.0
215.44334   103825     8.0
215.44337   103827     8.0
215.44339   103829     8.0
215.44342   103831     8.0
215.44344   103833     8.0
215.44347   103835     8.0
215.44348   103837     8.1
215.44351   103839     8.1
215.44353   103841     8.1
215.44356   103843     8.2
215.44357   103845     8.2
215.44360   103847     8.3
215.44362   103849     8.3
215.44365   103851     8.3
215.44366   103853     8.4
215.44370   103855     8.4
215.44371   103857     8.5
215.44374   103859     8.5
215.44376   103901     8.5
215.44379   103903     8.6
215.44380   103905     8.6
215.44383   103907     8.7
215.44385   103909     8.7
215.44388   103911     8.7
215.44389   103913     8.8
215.44392   103915     8.8
215.44394   103917     8.9
215.44397   103919     8.9
215.44400   103921     8.9
215.44402   103923     9.0
215.44405   103925     9.0
215.44406   103927     9.1
215.44409   103929     9.1
215.44411   103931     9.2
215.44414   103933     9.3
215.44415   103935     9.3
215.44418   103937     9.4
215.44420   103939     9.4
215.44423   103941     9.5
215.44424   103943     9.5
215.44427   103945     9.6
215.44429   103947     9.7
215.44432   103949     9.7
215.44434   103951     9.8
215.44437   103953     9.8
215.44438   103955     9.9
215.44441   103957     9.9
215.44443   103959    10.0
215.44446   104001    10.0
215.44447   104003    10.0
215.44450   104005    10.0
215.44452   104007    10.0
215.44455   104009    10.0
215.44456   104011    10.0
215.44460   104013    10.0
215.44461   104015    10.0
215.44464   104017    10.0
215.44467   104019    10.0
215.44469   104021    10.0
215.44472   104023    10.0
215.44473   104025    10.0
215.44476   104027    10.0
215.44478   104029    10.0
215.44481   104031    10.0
215.44482   104033    10.0
215.44485   104035    10.0
215.44487   104037    10.0
215.44490   104039    10.0
215.44492   104041    10.0
215.44495   104043    10.0
215.44496   104045    10.0
215.44499   104047    10.0
215.44501   104049    10.0
215.44504   104051    10.0
215.44505   104053    10.0
215.44508   104055    10.0
215.44510   104057    10.0
215.44513   104059    10.0
215.44514   104101    10.0
215.44518   104103    10.0
215.44519   104105    10.0
215.44522   104107    10.0
215.44524   104109    10.0
215.44527   104111    10.0
215.44528   104113    10.0
215.44531   104115    10.0
215.44534   104117    10.0
215.44536   104119    10.0
215.44539   104121    10.0
215.44540   104123    10.0
215.44543   104125    10.0
215.44545   104127    10.0
215.44548   104129    10.0
215.44550   104131    10.0
215.44553   104133    10.0
215.44554   104135    10.0
215.44557   104137    10.0
215.44559   104139    10.0
215.44562   104141    10.0
215.44563   104143    10.0
215.44566   104145    10.0
215.44568   104147    10.0
215.44571   104149    10.0
215.44572   104151    10.0
215.44576   104153    10.0
215.44577   104155    10.0
215.44580   104157    10.0
215.44582   104159    10.0
215.44585   104201    10.0
215.44586   104203    10.0
215.44589   104205    10.0
215.44591   104207    10.0
215.44594   104209    10.0
215.44595   104211    10.0
215.44598   104213    10.0
215.44601   104215    10.0
215.44603   104217    10.0
215.44606   104219    10.0
215.44608   104221    10.0
215.44611   104223    10.0
215.44612   104225    10.0
215.44615   104227    10.0
215.44617   104229    10.0
215.44620   104231    10.0
215.44621   104233    10.0
215.44624   104235    10.0
215.44626   104237    10.0
215.44629   104239    10.0
215.44630   104241    10.0
215.44633   104243    10.0
215.44635   104245    10.0
215.44638   104247    10.0
215.44640   104249    10.0
215.44643   104251    10.0
215.44644   104253    10.0
215.44647   104255    10.0
215.44649   104257    10.0
215.44652   104259    10.0
215.44653   104301    10.0
215.44656   104303     9.9
215.44658   104305     9.9
215.44661   104307     9.8
215.44662   104309     9.8
215.44666   104311     9.8
215.44669   104313     9.7
215.44670   104315     9.7
215.44673   104317     9.6
215.44675   104319     9.6
215.44678   104321     9.6
215.44679   104323     9.5
215.44682   104325     9.5
215.44684   104327     9.4
215.44687   104329     9.4
215.44688   104331     9.4
215.44691   104333     9.3
215.44693   104335     9.3
215.44696   104337     9.2
215.44698   104339     9.2
215.44701   104341     9.2
215.44702   104343     9.1
215.44705   104345     9.1
215.44707   104347     9.0
215.44710   104349     9.0
215.44711   104351     9.0
215.44714   104353     8.9
215.44716   104355     8.9
215.44719   104357     8.8
215.44720   104359     8.8
215.44724   104401     8.7
215.44725   104403     8.7
215.44728   104405     8.7
215.44730   104407     8.6
215.44733   104409     8.6
215.44736   104411     8.5
215.44737   104413     8.5
215.44740   104415     8.4
215.44742   104417     8.4
215.44745   104419     8.4
215.44746   104421     8.3
215.44749   104423     8.3
215.44751   104425     8.2
215.44754   104427     8.2
215.44756   104429     8.1
215.44759   104431     8.1
215.44760   104433     8.1
215.44763   104435     8.0
215.44765   104437     8.0
215.44768   104439     8.1
215.44769   104441     8.1
215.44772   104443     8.2
215.44774   104445     8.2
215.44777   104447     8.3
215.44778   104449     8.3
215.44781   104451     8.4
215.44783   104453     8.4
215.44786   104455     8.5
215.44788   104457     8.5
215.44791   104459     8.6
215.44792   104501     8.6
215.44795   104503     8.7
215.44797   104505     8.7
215.44800   104507     8.8
215.44801   104509     8.8
215.44804   104511     8.9
215.44807   104513     8.9
215.44809   104515     9.0
215.44812   104517     9.0
215.44814   104519     9.0
215.44817   104521     9.1
215.44818   104523     9.1
215.44821   104525     9.2
215.44823   104527     9.2
215.44826   104529     9.3
215.44827   104531     9.3
215.44830   104533     9.4
215.44832   104535     9.4
215.44835   104537     9.5
215.44836   104539     9.5
215.44839   104541     9.6
215.44841   104543     9.6
215.44844   104545     9.7
215.44846   104547     9.7
215.44849   104549     9.7
215.44850   104551     9.8
215.44853   104553     9.8
215.44855   104555     9.9
215.44858   104557     9.9
215.44859   104559    10.0
215.44862   104601    10.0
215.44864   104603    10.0
215.44867   104605    10.0
215.44868   104607    10.0
215.44872   104609    10.0
215.44875   104611    10.0
215.44876   104613    10.0
215.44879   104615    10.0
215.44881   104617    10.0
215.44884   104619    10.0
215.44885   104621    10.0
215.44888   104623    10.0
215.44890   104625    10.0
215.44893   104627    10.0
215.44894   104629    10.0
215.44897   104631    10.0
215.44899   104633    10.1
215.44902   104635    10.1
215.44904   104637    10.2
215.44907   104639    10.3
215.44908   104641    10.4
215.44911   104643    10.4
215.44913   104645    10.5
215.44916   104647    10.6
215.44917   104649    10.7
215.44920   104651    10.7
215.44922   104653    10.8
215.44925   104655    10.9
215.44926   104657    11.0
215.44930   104659    11.0
215.44931   104701    11.1
215.44934   104703    11.2
215.44936   104705    11.3
215.44939   104707    11.3
215.44942   104709    11.4
215.44943   104711    11.5
215.44946   104713    11.6
215.44948   104715    11.6
215.44951   104717    11.7
215.44952   104719    11.8
215.44955   104721    11.9
215.44957   104723    11.9
215.44960   104725    12.0
215.44962   104727    12.1
215.44965   104729    12.2
215.44966   104731    12.3
215.44969   104733    12.4
215.44971   104735    12.6
215.44974   104737    12.7
215.44975   104739    12.8
215.44978   104741    12.9
215.44980   104743    13.0
215.44983   104745    13.1
215.44984   104747    13.2
215.44987   104749    13.3
215.44989   104751    13.4
215.44992   104753    13.6
215.44994   104755    13.7
215.44997   104757    13.8
215.44998   104759    13.9
215.45001   104801    14.0
215.45003   104803    14.0
215.45006   104805    14.0
215.45009   104807    14.0
215.45010   104809    14.0
215.45013   104811    14.0
215.45015   104813    14.0
215.45018   104815    14.0
215.45020   104817    14.0
215.45023   104819    14.0
215.45024   104821    14.0
215.45027   104823    14.0
215.45029   104825    14.0
215.45032   104827    14.0
215.45033   104829    14.0
215.45036   104831    14.0
215.45038   104833    14.0
215.45041   104835    14.0
215.45042   104837    14.0
215.45045   104839    14.0
215.45047   104841    14.0
215.45050   104843    14.0
215.45052   104845    14.0
215.45055   104847    14.0
215.45056   104849    14.0
215.45059   104851    14.0
215.45061   104853    14.0
215.45064   104855    14.0
215.45065   104857    14.0
215.45068   104859    14.0
215.45070   104901    14.0
215.45073   104903    14.0
215.45076   104905    14.0
215.45078   104907    14.0
215.45081   104909    14.0
215.45082   104911    14.0
215.45085   104913    14.0
215.45087   104915    14.0
215.45090   104917    14.0
215.45091   104919    14.0
215.45094   104921    14.0
215.45096   104923    14.0
215.45099   104925    14.0
215.45100   104927    14.0
215.45103   104929    14.0
215.45105   104931    14.1
215.45108   104933    14.1
215.45110   104935    14.1
215.45113   104937    14.1
215.45114   104939    14.1
215.45117   104941    14.2
215.45119   104943    14.2
215.45122   104945    14.2
215.45123   104947    14.2
215.45126   104949    14.3
215.45128   104951    14.3
215.45131   104953    14.3
215.45132   104955    14.3
215.45135   104957    14.3
215.45137   104959    14.4
215.45140   105001    14.4
215.45142   105003    14.4
215.45145   105005    14.4
215.45148   105007    14.4
215.45149   105009    14.5
215.45152   105011    14.5
215.45154   105013    14.5
215.45157   105015    14.5
215.45158   105017    14.6
215.45161   105019    14.6
215.45163   105021    14.6
215.45166   105023    14.6
215.45168   105025    14.6
215.45171   105027    14.7
215.45172   105029    14.7
215.45175   105031    14.7
215.45177   105033    14.7
215.45180   105035    14.8
215.45181   105037    14.8
215.45184   105039    14.8
215.45186   105041    14.8
215.45189   105043    14.8
215.45190   105045    14.9
215.45193   105047    14.9
215.45195   105049    14.9
215.45198   105051    14.9
215.45200   105053    14.9
215.45203   105055    15.0
215.45204   105057    15.0
215.45207   105059    15.0
215.45209   105101    15.0
215.45212   105103    15.0
215.45215   105105    15.0
215.45216   105107    15.0
215.45219   105109    15.0
215.45221   105111    15.0
215.45224   105113    15.0
215.45226   105115    15.0
215.45229   105117    15.0
215.45230   105119    15.0
215.45233   105121    15.0
215.45235   105123    15.0
215.45238   105125    15.0
215.45239   105127    15.0
215.45242   105129    15.0
215.45244   105131    15.0
215.45247   105133    15.0
215.45248   105135    15.0
215.45251   105137    15.0
215.45253   105139    15.0
215.45256   105141    15.0
215.45258   105143    15.0
215.45261   105145    15.0
215.45262   105147    15.0
215.45265   105149    15.0
215.45267   105151    15.0
215.45270   105153    15.0
215.45271   105155    15.0
215.45274   105157    15.0
215.45276   105159    15.0
215.45279   105201    15.0
215.45282   105203    15.0
215.45284   105205    15.0
215.45287   105207    15.0
215.45288   105209    15.0
215.45291   105211    15.0
215.45293   105213    15.0
215.45296   105215    15.0
215.45297   105217    15.0
215.45300   105219    15.0
215.45302   105221    15.0
215.45305   105223    15.0
215.45306   105225    15.0
215.45309   105227    15.0
215.45311   105229    15.0
215.45314   105231    15.0
215.45316   105233    15.0
215.45319   105235    15.0
215.45320   105237    15.0
215.45323   105239    15.0
215.45325   105241    15.0
215.45328   105243    15.0
215.45329   105245    15.0
215.45332   105247    15.0
215.45334   105249    15.0
215.45337   105251    15.0
215.45338   105253    15.0
215.45341   105255    15.0
215.45343   105257    15.0
215.45346   105259    15.0
215.45349   105301    15.0
215.45351   105303    15.0
215.45354   105305    15.0
215.45355   105307    15.0
215.45358   105309    15.0
215.45360   105311    15.0
215.45363   105313    15.0
215.45364   105315    15.0
215.45367   105317    15.0
215.45369   105319    15.0
215.45372   105321    15.0
215.45374   105323    15.0
215.45377   105325    15.0
215.45378   105327    15.0
215.45381   105329    15.0
215.45383   105331    15.0
215.45386   105333    15.0
215.45387   105335    15.0
215.45390   105337    15.0
215.45392   105339    15.0
215.45395   105341    15.0
215.45396   105343    15.0
215.45399   105345    15.0
215.45401   105347    15.0
215.45404   105349    15.0
215.45406   105351    15.0
215.45409   105353    15.0
215.45410   105355    15.0
215.45413   105357    15.0
215.45416   105359    15.0
215.45418   105401    15.0
215.45421   105403    15.0
215.45422   105405    15.0
215.45425   105407    15.0
215.45427   105409    15.0
215.45430   105411    15.0
215.45432   105413    15.0
215.45435   105415    15.0
215.45436   105417    15.0
215.45439   105419    15.0
215.45441   105421    15.0
215.45444   105423    15.0
215.45445   105425    15.0
215.45448   105427    15.0
215.45450   105429    15.0
215.45453   105431    15.0
215.45454   105433    15.0
215.45457   105435    15.0
215.45459   105437    15.0
215.45462   105439    15.0
215.45464   105441    15.0
215.45467   105443    15.0
215.45468   105445    15.0
215.45471   105447    15.0
215.45473   105449    15.0
215.45476   105451    15.0
215.45477   105453    15.0
215.45480   105455    15.0
215.45483   105457    15.0
215.45485   105459    15.0
215.45488   105501    15.0
215.45490   105503    15.0
215.45493   105505    15.0
215.45494   105507    15.0
215.45497   105509    15.0
215.45499   105511    15.0
215.45502   105513    15.0
215.45503   105515    15.0
215.45506   105517    15.0
215.45508   105519    15.0
215.45511   105521    15.0
215.45512   105523    15.0
215.45515   105525    15.0
215.45517   105527    15.0
215.45520   105529    15.0
215.45522   105531    15.0
215.45525   105533    15.0
215.45526   105535    15.0
215.45529   105537    15.0
215.45531   105539    15.0
215.45534   105541    15.0
215.45535   105543    15.0
215.45538   105545    15.0
215.45540   105547    15.0
215.45543   105549    15.0
215.45544   105551    15.0
215.45547   105553    15.0
215.45549   105555    15.0
215.45552   105557    15.0
215.45555   105559    15.0
215.45557   105601    15.0
215.45560   105603    15.0
215.45561   105605    15.0
215.45564   105607    15.0
215.45566   105609    15.0
215.45569   105611    15.0
215.45570   105613    15.0
215.45573   105615    15.0
215.45575   105617    15.0
215.45578   105619    15.0
215.45580   105621    15.0
215.45583   105623    15.0
215.45584   105625    15.0
215.45587   105627    15.0
215.45589   105629    15.0
215.45592   105631    15.0
215.45593   105633    15.0
215.45596   105635    15.0
215.45598   105637    15.0
215.45601   105639    15.0
215.45602   105641    15.0
215.45605   105643    15.0
215.45607   105645    15.0
215.45610   105647    15.0
215.45612   105649    15.0
215.45615   105651    15.0
215.45616   105653    15.0
215.45619   105655    15.0
215.45622   105657    15.0
215.45624   105659    15.0
215.45627   105701    15.0
215.45628   105703    15.0
215.45631   105705    15.0
215.45633   105707    15.0
215.45636   105709    15.0
215.45638   105711    15.0
215.45641   105713    15.0
215.45642   105715    15.0
215.45645   105717    15.0
215.45647   105719    15.0
215.45650   105721    15.0
215.45651   105723    15.0
215.45654   105725    15.0
215.45656   105727    15.1
215.45659   105729    15.1
215.45660   105731    15.1
215.45663   105733    15.1
215.45665   105735    15.1
215.45668   105737    15.1
215.45670   105739    15.1
215.45673   105741    15.1
215.45674   105743    15.1
215.45677   105745    15.1
215.45679   105747    15.1
215.45682   105749    15.1
215.45683   105751    15.1
215.45686   105753    15.1
215.45689   105755    15.2
215.45691   105757    15.2
215.45694   105759    15.2
215.45695   105801    15.2
215.45699   105803    15.2
215.45700   105805    15.2
215.45703   105807    15.2
215.45705   105809    15.2
215.45708   105811    15.2
215.45709   105813    15.2
215.45712   105815    15.2
215.45714   105817    15.2
215.45717   105819    15.2
215.45718   105821    15.2
215.45721   105823    15.3
215.45723   105825    15.3
215.45726   105827    15.3
215.45728   105829    15.3
215.45731   105831    15.3
215.45732   105833    15.3
215.45735   105835    15.3
215.45737   105837    15.3
215.45740   105839    15.3
215.45741   105841    15.3
215.45744   105843    15.3
215.45746   105845    15.3
215.45749   105847    15.3
215.45750   105849    15.3
215.45753   105851    15.4
215.45757   105853    15.4
215.45758   105855    15.4
215.45761   105857    15.4
215.45763   105859    15.4
215.45766   105901    15.4
215.45767   105903    15.4
215.45770   105905    15.4
215.45772   105907    15.4
215.45775   105909    15.4
215.45776   105911    15.4
215.45779   105913    15.4
215.45781   105915    15.4
215.45784   105917    15.4
215.45786   105919    15.5
215.45789   105921    15.5
215.45790   105923    15.5
215.45793   105925    15.5
215.45795   105927    15.5
215.45798   105929    15.5
215.45799   105931    15.5
215.45802   105933    15.5
215.45804   105935    15.5
215.45807   105937    15.5
215.45808   105939    15.5
215.45811   105941    15.5
215.45813   105943    15.5
215.45816   105945    15.6
215.45818   105947    15.6
215.45821   105949    15.6
215.45824   105951    15.6
215.45825   105953    15.6
215.45828   105955    15.6
215.45830   109957    15.6
215.45833   109959    15.6
215.45834   110001    15.6
215.45837   110003    15.6
215.45839   110005    15.6
215.45842   110007    15.6
215.45844   110009    15.6
215.45847   110011    15.6
215.45848   110013    15.7
215.45851   110015    15.7
215.45853   110017    15.7
215.45856   110019    15.7
215.45857   110021    15.7
215.45860   110023    15.7
215.45862   110025    15.7
215.45865   110027    15.7
215.45866   110029    15.7
215.45869   110031    15.7
215.45871   110033    15.7
215.45874   110035    15.7
215.45876   110037    15.7
215.45879   110039    15.7
215.45880   110041    15.8
215.45883   110043    15.8
215.45885   110045    15.8
215.45888   110047    15.8
215.45891   110049    15.8
215.45892   110051    15.8
215.45895   110053    15.8
215.45897   110055    15.8
215.45900   110057    15.8
215.45901   110059    15.8
215.45905   110101    15.8
215.45906   110103    15.8
215.45909   110105    15.8
215.45911   110107    15.8
215.45914   110109    15.9
215.45915   110111    15.9
215.45918   110113    15.9
215.45920   110115    15.9
215.45923   110117    15.9
215.45924   110119    15.9
215.45927   110121    15.9
215.45929   110123    15.9
215.45932   110125    15.9
215.45934   110127    15.9
215.45937   110129    15.9
215.45938   110131    15.9
215.45941   110133    15.9
215.45943   110135    15.9
215.45946   110137    16.0
215.45947   110139    16.0
215.45950   110141    16.0
215.45952   110143    16.0
215.45955   110145    16.0
215.45956   110147    16.0
215.45959   110149    16.0
215.45963   110151    16.0
215.45964   110153    16.0
215.45967   110155    16.0
215.45969   110157    16.0
215.45972   110159    16.0
215.45973   110201    16.0
215.45976   110203    16.0
215.45978   110205    16.0
215.45981   110207    16.0
215.45982   110209    16.0
215.45985   110211    16.0
215.45987   110213    16.0
215.45990   110215    16.0
215.45992   110217    16.0
215.45995   110219    16.0
215.45996   110221    16.0
215.45999   110223    16.0
215.46001   110225    16.0
215.46004   110227    16.0
215.46005   110229    16.0
215.46008   110231    16.0
215.46010   110233    16.0
215.46013   110235    16.0
215.46014   110237    16.0
215.46017   110239    16.0
215.46019   110241    16.0
215.46022   110243    16.0
215.46024   110245    16.0
215.46027   110247    16.0
215.46030   110249    16.0
215.46031   110251    16.0
215.46034   110253    16.0
215.46036   110255    16.0
215.46039   110257    16.0
215.46040   110259    16.0
215.46043   110301    16.0
215.46045   110303    16.0
215.46048   110305    16.0
215.46049   110307    16.0
215.46053   110309    16.0
215.46054   110311    15.9
215.46057   110313    15.9
215.46059   110315    15.9
215.46062   110317    15.9
215.46063   110319    15.9
215.46066   110321    15.9
215.46068   110323    15.9
215.46071   110325    15.9
215.46072   110327    15.9
215.46075   110329    15.9
215.46077   110331    15.8
215.46080   110333    15.8
215.46082   110335    15.8
215.46085   110337    15.8
215.46086   110339    15.8
215.46089   110341    15.8
215.46091   110343    15.8
215.46094   110345    15.8
215.46097   110347    15.8
215.46098   110349    15.8
215.46101   110351    15.7
215.46103   110353    15.7
215.46106   110355    15.7
215.46107   110357    15.7
215.46111   110359    15.7
215.46112   110401    15.7
215.46115   110403    15.7
215.46117   110405    15.7
215.46120   110407    15.7
215.46121   110409    15.7
215.46124   110411    15.7
215.46126   110413    15.6
215.46129   110415    15.6
215.46130   110417    15.6
215.46133   110419    15.6
215.46135   110421    15.6
215.46138   110423    15.6
215.46140   110425    15.6
215.46143   110427    15.6
215.46144   110429    15.6
215.46147   110431    15.6
215.46149   110433    15.5
215.46152   110435    15.5
215.46153   110437    15.5
215.46156   110439    15.5
215.46158   110441    15.5
215.46161   110443    15.5
215.46164   110445    15.5
215.46165   110447    15.5
215.46169   110449    15.5
215.46170   110451    15.5
215.46173   110453    15.4
215.46175   110455    15.4
215.46178   110457    15.4
215.46179   110459    15.4
215.46182   110501    15.4
215.46184   110503    15.4
215.46187   110505    15.4
215.46188   110507    15.4
215.46191   110509    15.4
215.46193   110511    15.4
215.46196   110513    15.3
215.46198   110515    15.3
215.46201   110517    15.3
215.46202   110519    15.3
215.46205   110521    15.3
215.46207   110523    15.3
215.46210   110525    15.3
215.46211   110527    15.3
215.46214   110529    15.3
215.46216   110531    15.3
215.46219   110533    15.2
215.46220   110535    15.2
215.46223   110537    15.2
215.46225   110539    15.2
215.46228   110541    15.2
215.46231   110543    15.2
215.46233   110545    15.2
215.46236   110547    15.2
215.46237   110549    15.2
215.46240   110551    15.2
215.46242   110553    15.1
215.46245   110555    15.1
215.46246   110557    15.1
215.46249   110559    15.1
215.46251   110601    15.1
215.46254   110603    15.1
215.46255   110605    15.1
215.46259   110607    15.1
215.46260   110609    15.1
215.46263   110611    15.1
215.46265   110613    15.0
215.46268   110615    15.0
215.46269   110617    15.0
215.46272   110619    15.0
215.46274   110621    15.0
215.46277   110623    15.0
215.46278   110625    15.0
215.46281   110627    15.0
215.46283   110629    15.0
215.46286   110631    15.0
215.46288   110633    15.0
215.46291   110635    15.0
215.46292   110637    15.0
215.46295   110639    15.0
215.46298   110641    15.0
215.46300   110643    15.0
215.46303   110645    15.0
215.46304   110647    15.0
215.46307   110649    15.0
215.46309   110651    15.0
215.46312   110653    15.0
215.46313   110655    15.0
215.46317   110657    15.0
215.46318   110659    15.0
215.46321   110701    15.0
215.46323   110703    15.0
215.46326   110705    15.0
215.46327   110707    15.0
215.46330   110709    15.0
215.46332   110711    15.0
215.46335   110713    15.0
215.46336   110715    15.0
215.46339   110717    15.0
215.46341   110719    15.0
215.46344   110721    15.0
215.46346   110723    15.0
215.46349   110725    15.0
215.46350   110727    15.0
215.46353   110729    15.0
215.46355   110731    15.0
215.46358   110733    15.0
215.46359   110735    15.0
215.46362   110737    15.0
215.46364   110739    15.0
215.46367   110741    15.0
215.46370   110743    15.0
215.46371   110745    15.0
215.46375   110747    15.0
215.46376   110749    15.0
215.46379   110751    15.0
215.46381   110753    15.0
215.46384   110755    15.0
215.46385   110757    15.0
215.46388   110759    15.0
215.46390   110801    15.0
215.46393   110803    15.0
215.46394   110805    15.0
215.46397   110807    15.0
215.46399   110809    15.0
215.46402   110811    15.0
215.46404   110813    15.0
215.46407   110815    15.0
215.46408   110817    15.0
215.46411   110819    15.0
215.46413   110821    15.0
215.46416   110823    15.0
215.46417   110825    15.0
215.46420   110827    15.0
215.46422   110829    15.0
215.46425   110831    15.0
215.46426   110833    15.0
215.46429   110835    15.0
215.46431   110837    15.0
215.46434   110839    15.0
215.46437   110841    15.0
215.46439   110843    15.0
215.46442   110845    15.0
215.46443   110847    15.0
215.46446   110849    15.0
215.46448   110851    15.0
215.46451   110853    15.0
215.46452   110855    15.0
215.46455   110857    15.0
215.46457   110859    15.0
215.46460   110901    15.0
215.46461   110903    15.0
215.46465   110905    15.0
215.46466   110907    15.0
215.46469   110909    15.0
215.46471   110911    15.0
215.46474   110913    15.0
215.46475   110915    15.0
215.46478   110917    15.0
215.46480   110919    15.0
215.46483   110921    15.0
215.46484   110923    15.0
215.46487   110925    15.0
215.46489   110927    15.0
215.46492   110929    15.0
215.46494   110931    15.0
215.46497   110933    15.0
215.46498   110935    15.0
215.46501   110937    15.0
215.46504   110939    15.0
215.46506   110941    15.0
215.46509   110943    15.0
215.46510   110945    15.0
215.46513   110947    15.0
215.46515   110949    15.0
215.46518   110951    15.0
215.46519   110953    15.0
215.46523   110955    15.0
215.46524   110957    15.0
215.46527   110959    15.0
215.46529   111001    15.0
215.46532   111003    15.0
215.46533   111005    15.0
215.46536   111007    15.0
215.46538   111009    15.0
215.46541   111011    15.0
215.46542   111013    15.0
215.46545   111015    15.0
215.46547   111017    15.0
215.46550   111019    15.0
215.46552   111021    15.0
215.46555   111023    15.0
215.46556   111025    15.0
215.46559   111027    15.0
215.46561   111029    15.0
215.46564   111031    15.0
215.46565   111033    15.0
215.46568   111035    15.0
215.46571   111037    15.0
215.46573   111039    15.0
215.46576   111041    15.0
215.46577   111043    15.0
215.46581   111045    15.0
215.46582   111047    15.0
215.46585   111049    15.0
215.46587   111051    15.0
215.46590   111053    15.0
215.46591   111055    15.0
215.46594   111057    15.0
215.46596   111059    15.0
215.46599   111101    15.0
215.46600   111103    14.9
215.46603   111105    14.9
215.46605   111107    14.9
215.46608   111109    14.8
215.46609   111111    14.8
215.46613   111113    14.7
215.46614   111115    14.7
215.46617   111117    14.6
215.46619   111119    14.6
215.46622   111121    14.6
215.46623   111123    14.5
215.46626   111125    14.5
215.46628   111127    14.4
215.46631   111129    14.4
215.46632   111131    14.3
215.46635   111133    14.3
215.46638   111135    14.3
215.46640   111137    14.2
215.46643   111139    14.2
215.46645   111141    14.1
215.46648   111143    14.1
215.46649   111145    14.0
215.46652   111147    14.0
215.46654   111149    14.0
215.46657   111151    13.9
215.46658   111153    13.9
215.46661   111155    13.9
215.46663   111157    13.9
215.46666   111159    13.8
215.46667   111201    13.8
215.46671   111203    13.8
215.46672   111205    13.7
215.46675   111207    13.7
215.46677   111209    13.7
215.46680   111211    13.6
215.46681   111213    13.6
215.46684   111215    13.6
215.46686   111217    13.6
215.46689   111219    13.5
215.46690   111221    13.5
215.46693   111223    13.5
215.46695   111225    13.4
215.46698   111227    13.4
215.46700   111229    13.4
215.46703   111231    13.3
215.46704   111233    13.3
215.46707   111235    13.3
215.46710   111237    13.3
215.46712   111239    13.2
215.46715   111241    13.2
215.46716   111243    13.2
215.46719   111245    13.1
215.46721   111247    13.1
215.46724   111249    13.1
215.46725   111251    13.0
215.46729   111253    13.0
215.46730   111255    13.0
215.46733   111257    12.9
215.46735   111259    12.9
215.46738   111301    12.8
215.46739   111303    12.7
215.46742   111305    12.7
215.46744   111307    12.6
215.46747   111309    12.6
215.46748   111311    12.5
215.46751   111313    12.4
215.46753   111315    12.4
215.46756   111317    12.3
215.46758   111319    12.3
215.46761   111321    12.2
215.46762   111323    12.1
215.46765   111325    12.1
215.46767   111327    12.0
215.46770   111329    12.0
215.46771   111331    11.9
215.46774   111333    11.9
215.46777   111335    11.8
215.46779   111337    11.7
215.46782   111339    11.7
215.46783   111341    11.6
215.46786   111343    11.6
215.46788   111345    11.5
215.46791   111347    11.4
215.46793   111349    11.4
215.46796   111351    11.3
215.46797   111353    11.3
215.46800   111355    11.2
215.46802   111357    11.1
215.46805   111359    11.1
215.46806   111401    11.0
215.46809   111403    11.0
215.46811   111405    10.9
215.46814   111407    10.9
215.46815   111409    10.8
215.46819   111411    10.8
215.46820   111413    10.8
215.46823   111415    10.7
215.46825   111417    10.7
215.46828   111419    10.6
215.46829   111421    10.6
215.46832   111423    10.5
215.46834   111425    10.5
215.46837   111427    10.5
215.46838   111429    10.4
215.46841   111431    10.4
215.46844   111433    10.3
215.46846   111435    10.3
215.46849   111437    10.2
215.46851   111439    10.2
215.46854   111441    10.2
215.46855   111443    10.1
215.46858   111445    10.1
215.46860   111447    10.0
215.46863   111449    10.0
215.46864   111451    10.0
215.46867   111453     9.9
215.46869   111455     9.9
215.46872   111457     9.9
215.46873   111459     9.8
215.46877   111501     9.8
215.46878   111503     9.8
215.46881   111505     9.7
215.46883   111507     9.7
215.46886   111509     9.7
215.46887   111511     9.7
215.46890   111513     9.6
215.46892   111515     9.6
215.46895   111517     9.6
215.46896   111519     9.5
215.46899   111521     9.5
215.46901   111523     9.5
215.46904   111525     9.4
215.46906   111527     9.4
215.46909   111529     9.4
215.46912   111531     9.4
215.46913   111533     9.3
215.46916   111535     9.3
215.46918   111537     9.3
215.46921   111539     9.2
215.46922   111541     9.2
215.46925   111543     9.2
215.46927   111545     9.1
215.46930   111547     9.1
215.46931   111549     9.1
215.46935   111551     9.1
215.46936   111553     9.0
215.46939   111555     9.0
215.46941   111557     9.0
215.46944   111559     9.0
215.46945   111601     9.0
215.46948   111603     9.0
215.46950   111605     9.0
215.46953   111607     9.0
215.46954   111609     9.0
215.46957   111611     9.0
215.46959   111613     9.0
215.46962   111615     9.0
215.46964   111617     9.0
215.46967   111619     9.0
215.46968   111621     9.0
215.46971   111623     9.0
215.46973   111625     9.0
215.46976   111627     9.0
215.46979   111629     9.0
215.46980   111631     9.0
215.46983   111633     9.0
215.46985   111635     9.0
215.46988   111637     9.0
215.46989   111639     9.0
215.46992   111641     9.0
215.46994   111643     9.0
215.46997   111645     9.0
215.46999   111647     9.0
215.47002   111649     9.0
215.47003   111651     9.0
215.47006   111653     9.0
215.47008   111655     9.0
215.47011   111657     9.0
215.47012   111659     9.0
215.47015   111701     9.1
215.47017   111703     9.1
215.47020   111705     9.2
215.47021   111707     9.2
215.47025   111709     9.3
215.47026   111711     9.3
215.47029   111713     9.4
215.47031   111715     9.4
215.47034   111717     9.5
215.47035   111719     9.5
215.47038   111721     9.5
215.47040   111723     9.6
215.47043   111725     9.6
215.47046   111727     9.7
215.47047   111729     9.7
215.47050   111731     9.8
215.47052   111733     9.8
215.47055   111735     9.9
215.47057   111737     9.9
215.47060   111739    10.0
215.47061   111741    10.0
215.47064   111743    10.0
215.47066   111745    10.0
215.47069   111747    10.0
215.47070   111749    10.0
215.47073   111751    10.0
215.47075   111753    10.0
215.47078   111755    10.0
215.47079   111757    10.0
215.47083   111759    10.0
215.47084   111801    10.0
215.47087   111803    10.0
215.47089   111805    10.0
215.47092   111807    10.0
215.47093   111809    10.0
215.47096   111811    10.0
215.47098   111813    10.0
215.47101   111815    10.0
215.47102   111817    10.0
215.47105   111819    10.0
215.47107   111821    10.0
215.47110   111823    10.0
215.47112   111825    10.0
215.47115   111827    10.0
215.47118   111829    10.0
215.47119   111831    10.0
215.47122   111833    10.0
215.47124   111835    10.0
215.47127   111837    10.0
215.47128   111839    10.0
215.47131   111841    10.0
215.47133   111843    10.0
215.47136   111845    10.0
215.47137   111847    10.0
215.47141   111849    10.0
215.47142   111851    10.0
215.47145   111853    10.0
215.47147   111855    10.0
215.47150   111857    10.0
215.47151   111859    10.0
215.47154   111901    10.0
215.47156   111903    10.0
215.47159   111905    10.0
215.47160   111907    10.0
215.47163   111909    10.0
215.47165   111911    10.0
215.47168   111913    10.0
215.47169   111915    10.0
215.47173   111917    10.0
215.47174   111919    10.0
215.47177   111921    10.0
215.47179   111923    10.0
215.47182   111925    10.0
215.47185   111927    10.0
215.47186   111929    10.0
215.47189   111931    10.0
215.47191   111933    10.0
215.47194   111935    10.0
215.47195   111937    10.0
215.47198   111939    10.0
215.47200   111941    10.0
215.47203   111943    10.0
215.47205   111945    10.0
215.47208   111947    10.0
215.47209   111949    10.0
215.47212   111951    10.0
215.47214   111953    10.0
215.47217   111955    10.0
215.47218   111957    10.0
215.47221   111959    10.0
215.47223   112001    10.0
215.47226   112003    10.0
215.47227   112005    10.0
215.47231   112007    10.0
215.47232   112009    10.0
215.47235   112011    10.0
215.47237   112013    10.0
215.47240   112015    10.0
215.47241   112017    10.0
215.47244   112019    10.0
215.47246   112021    10.0
215.47249   112023    10.0
215.47252   112025    10.0
215.47253   112027    10.0
215.47256   112029    10.0
215.47258   112031    10.0
215.47261   112033    10.0
215.47263   112035    10.0
215.47266   112037    10.0
215.47267   112039    10.0
215.47606   112531         10.0       
215.47607   112533         10.0       
215.47610   112535         10.0       
215.47612   112537         10.0       
215.47615   112539         10.0       
215.47617   112541         10.0       
215.47620   112543         10.0       
215.47621   112545         10.0       
215.47624   112547         10.0       
215.47626   112549         10.0       
215.47629   112551         10.0       
215.47630   112553         10.0       
215.47633   112555         10.0       
215.47635   112557         10.0       
215.47638   112559         10.0       
215.47639   112601         10.0       
215.47643   112603         10.0       
215.47644   112605         10.0       
215.47647   112607         10.0       
215.47649   112609         10.0       
215.47652   112611         10.0       
215.47653   112613         10.0       
215.47656   112615         10.0       
215.47659   112617         10.0       
215.47661   112619         10.0       
215.47664   112621         10.0       
215.47665   112623         10.0       
215.47668   112625         10.0       
215.47670   112627         10.0       
215.47673   112629         10.0       
215.47675   112631         10.0       
215.47678   112633         10.0       
215.47679   112635         10.0       
215.47682   112637         10.0       
215.47684   112639         10.0       
215.47687   112641         10.0       
215.47688   112643         10.0       
215.47691   112645         10.0       
215.47693   112647         10.0       
215.47696   112649         10.0       
215.47697   112651         10.0       
215.47701   112653         10.0       
215.47702   112655         10.0       
215.47705   112657         10.0       
215.47707   112659         10.0       
215.47710   112701         10.0       
215.47711   112703         10.0       
215.47714   112705         10.0       
215.47716   112707         10.0       
215.47719   112709         10.0       
215.47720   112711         10.0       
215.47723   112713         10.0       
215.47726   112715         10.0       
215.47728   112717         10.0       
215.47731   112719         10.0       
215.47733   112721         10.0       
215.47736   112723         10.0       
215.47737   112725         10.0       
215.47740   112727         10.0       
215.47742   112729         10.0       
215.47745   112731         10.0       
215.47746   112733          9.9       
215.47749   112735          9.9       
215.47751   112737          9.9       
215.47754   112739          9.9       
215.47755   112741          9.9       
215.47758   112743          9.9       
215.47760   112745          9.9       
215.47763   112747          9.9       
215.47765   112749          9.9       
215.47768   112751          9.9       
215.47769   112753          9.9       
215.47772   112755          9.8       
215.47774   112757          9.8       
215.47777   112759          9.8       
215.47778   112801          9.8       
215.47781   112803          9.8       
215.47783   112805          9.8       
215.47786   112807          9.8       
215.47787   112809          9.8       
215.47791   112811          9.8       
215.47794   112813          9.8       
215.47795   112815          9.8       
215.47798   112817          9.8       
215.47800   112819          9.7       
215.47803   112821          9.7       
215.47804   112823          9.7       
215.47807   112825          9.7       
215.47809   112827          9.7       
215.47812   112829          9.7       
215.47813   112831          9.7       
215.47816   112833          9.7       
215.47818   112835          9.7       
215.47821   112837          9.7       
215.47823   112839          9.7       
215.47826   112841          9.6       
215.47827   112843          9.6       
215.47830   112845          9.6       
215.47832   112847          9.6       
215.47835   112849          9.6       
215.47836   112851          9.6       
215.47839   112853          9.6       
215.47841   112855          9.6       
215.47844   112857          9.6       
215.47845   112859          9.6       
215.47849   112901          9.6       
215.47850   112903          9.6       
215.47853   112905          9.5       
215.47855   112907          9.5       
215.47858   112909          9.5       
215.47861   112911          9.5       
215.47862   112913          9.5       
215.47865   112915          9.5       
215.47867   112917          9.5       
215.47870   112919          9.5       
215.47871   112921          9.5       
215.47874   112923          9.5       
215.47876   112925          9.5       
215.47879   112927          9.4       
215.47881   112929          9.4       
215.47884   112931          9.4       
215.47885   112933          9.4       
215.47888   112935          9.4       
215.47890   112937          9.4       
215.47893   112939          9.4       
215.47894   112941          9.4       
215.47897   112943          9.4       
215.47899   112945          9.4       
215.47902   112947          9.4       
215.47903   112949          9.4       
215.47906   112951          9.3       
215.47908   112953          9.3       
215.47911   112955          9.3       
215.47913   112957          9.3       
215.47916   112959          9.3       
215.47917   113001          9.3       
215.47920   113003          9.3       
215.47922   113005          9.3       
215.47925   113007          9.3       
215.47926   113009          9.3       
215.47929   113011          9.3       
215.47932   113013          9.2       
215.47934   113015          9.2       
215.47937   113017          9.2       
215.47939   113019          9.2       
215.47942   113021          9.2       
215.47943   113023          9.2       
215.47946   113025          9.2       
215.47948   113027          9.2       
215.47951   113029          9.2       
215.47952   113031          9.2       
215.47955   113033          9.2       
215.47957   113035          9.2       
215.47960   113037          9.1       
215.47961   113039          9.1       
215.47964   113041          9.1       
215.47966   113043          9.1       
215.47969   113045          9.1       
215.47971   113047          9.1       
215.47974   113049          9.1       
215.47975   113051          9.1       
215.47978   113053          9.1       
215.47980   113055          9.1       
215.47983   113057          9.1       
215.47984   113059          9.0       
215.47987   113101          9.0       
215.47989   113103          9.0       
215.47992   113105          9.0       
215.47993   113107          9.0       
215.47997   113109          9.0       
215.48000   113111          9.0       
215.48001   113113          9.0       
215.48004   113115          9.0       
215.48006   113117          9.0       
215.48009   113119          9.0       
215.48010   113121          9.0       
215.48013   113123          9.0       
215.48015   113125          9.0       
215.48018   113127          9.0       
215.48019   113129          9.0       
215.48022   113131          9.0       
215.48024   113133          9.0       
215.48027   113135          9.0       
215.48029   113137          9.0       
215.48032   113139          9.0       
215.48033   113141          9.0       
215.48036   113143          9.0       
215.48038   113145          9.0       
215.48041   113147          9.0       
215.48042   113149          9.0       
215.48045   113151          9.0       
215.48047   113153          9.0       
215.48050   113155          9.0       
215.48051   113157          9.0       
215.48055   113159          9.0       
215.48056   113201          9.0       
215.48059   113203          9.0       
215.48061   113205          9.0       
215.48064   113207          9.0       
215.48067   113209          9.0       
215.48068   113211          9.0       
215.48071   113213          9.0       
215.48073   113215          9.0       
215.48076   113217          9.0       
215.48077   113219          9.0       
215.48080   113221          9.0       
215.48082   113223          9.0       
215.48085   113225          9.0       
215.48087   113227          9.0       
215.48090   113229          9.0       
215.48091   113231          9.0       
215.48094   113233          9.0       
215.48096   113235          9.0       
215.48099   113237          9.0       
215.48100   113239          9.0       
215.48103   113241          9.0       
215.48105   113243          9.0       
215.48108   113245          9.0       
215.48109   113247          9.0       
215.48112   113249          9.0       
215.48114   113251          9.0       
215.48117   113253          9.0       
215.48119   113255          9.0       
215.48122   113257          9.0       
215.48123   113259          9.0       
215.48126   113301          9.0       
215.48128   113303          9.0       
215.48131   113305          9.0       
215.48134   113307          9.0       
215.48135   113309          9.0       
215.48138   113311          9.0       
215.48140   113313          9.0       
215.48143   113315          9.0       
215.48145   113317          9.0       
215.48148   113319          9.0       
215.48149   113321          9.0       
215.48152   113323          9.0       
215.48154   113325          9.0       
215.48157   113327          9.0       
215.48158   113329          9.0       
215.48161   113331          9.0       
215.48163   113333          9.0       
215.48166   113335          9.0       
215.48167   113337          9.0       
215.48170   113339          9.0       
215.48172   113341          9.0       
215.48175   113343          9.0       
215.48177   113345          9.0       
215.48180   113347          9.0       
215.48181   113349          9.0       
215.48184   113351          9.0       
215.48186   113353          9.0       
215.48189   113355          9.0       
215.48190   113357          9.0       
215.48193   113359          9.0       
215.48195   113401          9.0       
215.48198   113403          9.0       
215.48201   113405          9.0       
215.48203   113407          9.0       
215.48206   113409          9.0       
215.48207   113411          9.0       
215.48210   113413          9.0       
215.48212   113415          9.0       
215.48215   113417          9.0       
215.48216   113419          9.0       
215.48219   113421          9.0       
215.48221   113423          9.0       
215.48224   113425          9.0       
215.48225   113427          9.0       
215.48228   113429          9.0       
215.48230   113431          9.0       
215.48233   113433          9.0       
215.48235   113435          9.0       
215.48238   113437          9.0       
215.48239   113439          9.0       
215.48242   113441          9.0       
215.48244   113443          9.0       
215.48247   113445          9.0       
215.48248   113447          9.0       
215.48251   113449          9.0       
215.48253   113451          9.0       
215.48256   113453          9.0       
215.48257   113455          9.0       
215.48260   113457          9.0       
215.48262   113459          9.0       
215.48265   113501          9.0       
215.48267   113503          9.0       
215.48270   113505          9.0       
215.48273   113507          9.0       
215.48274   113509          9.0       
215.48277   113511          9.0       
215.48279   113513          9.0       
215.48282   113515          9.0       
215.48283   113517          9.0       
215.48286   113519          9.0       
215.48288   113521          9.0       
215.48291   113523          9.0       
215.48293   113525          9.0       
215.48296   113527          9.0       
215.48297   113529          9.0       
215.48300   113531          9.0       
215.48302   113533          9.0       
215.48305   113535          9.0       
215.48306   113537          9.0       
215.48309   113539          9.0       
215.48311   113541          9.0       
215.48314   113543          9.0       
215.48315   113545          9.0       
215.48318   113547          9.0       
215.48320   113549          9.0       
215.48323   113551          9.0       
215.48325   113553          9.0       
215.48328   113555          9.0       
215.48329   113557          9.0       
215.48332   113559          9.0       
215.48334   113601          9.0       
215.48337   113603          9.0       
215.48340   113605          9.0       
215.48341   113607          9.0       
215.48344   113609          9.0       
215.48346   113611          9.0       
215.48349   113613          9.0       
215.48351   113615          9.0       
215.48354   113617          9.0       
215.48355   113619          9.0       
215.48358   113621          9.0       
215.48360   113623          9.0       
215.48363   113625          9.0       
215.48364   113627          9.0       
215.48367   113629          9.0       
215.48369   113631          9.0       
215.48372   113633          9.0       
215.48373   113635          9.0       
215.48376   113637          9.0       
215.48378   113639          9.0       
215.48381   113641          9.0       
215.48383   113643          9.0       
215.48386   113645          9.0       
215.48387   113647          9.0       
215.48390   113649          9.0       
215.48392   113651          9.0       
215.48395   113653          9.0       
215.48396   113655          9.1       
215.48399   113657          9.2       
215.48401   113659          9.3       
215.48404   113701          9.3       
215.48407   113703          9.4       
215.48409   113705          9.5       
215.48412   113707          9.5       
215.48413   113709          9.6       
215.48416   113711          9.7       
215.48418   113713          9.8       
215.48421   113715          9.8       
215.48422   113717          9.9       
215.48425   113719         10.0       
215.48427   113721         10.0       
215.48430   113723         10.0       
215.48431   113725         10.1       
215.48434   113727         10.1       
215.48436   113729         10.1       
215.48439   113731         10.2       
215.48441   113733         10.2       
215.48444   113735         10.2       
215.48445   113737         10.2       
215.48448   113739         10.3       
215.48450   113741         10.3       
215.48453   113743         10.3       
215.48454   113745         10.4       
215.48457   113747         10.4       
215.48459   113749         10.4       
215.48462   113751         10.5       
215.48463   113753         10.5       
215.48466   113755         10.5       
215.48468   113757         10.5       
215.48471   113759         10.6       
215.48474   113801         10.6       
215.48476   113803         10.6       
215.48479   113805         10.7       
215.48480   113807         10.7       
215.48483   113809         10.7       
215.48485   113811         10.7       
215.48488   113813         10.8       
215.48489   113815         10.8       
215.48492   113817         10.8       
215.48494   113819         10.9       
215.48497   113821         10.9       
215.48499   113823         10.9       
215.48502   113825         10.9       
215.48503   113827         11.0       
215.48506   113829         11.0       
215.48508   113831         11.0       
215.48511   113833         11.1       
215.48512   113835         11.1       
215.48515   113837         11.1       
215.48517   113839         11.2       
215.48520   113841         11.2       
215.48521   113843         11.2       
215.48524   113845         11.2       
215.48526   113847         11.3       
215.48529   113849         11.3       
215.48531   113851         11.3       
215.48534   113853         11.4       
215.48535   113855         11.4       
215.48538   113857         11.4       
215.48541   113859         11.4       
215.48543   113901         11.5       
215.48546   113903         11.5       
215.48547   113905         11.5       
215.48550   113907         11.6       
215.48552   113909         11.6       
215.48555   113911         11.6       
215.48557   113913         11.6       
215.48560   113915         11.7       
215.48561   113917         11.7       
215.48564   113919         11.7       
215.48566   113921         11.8       
215.48569   113923         11.8       
215.48570   113925         11.8       
215.48573   113927         11.9       
215.48575   113929         11.9       
215.48578   113931         11.9       
215.48579   113933         11.9       
215.48582   113935         12.0       
215.48584   113937         12.0       
215.48587   113939         12.0       
215.48589   113941         12.0       
215.48592   113943         12.0       
215.48593   113945         12.0       
215.48596   113947         12.1       
215.48598   113949         12.1       
215.48601   113951         12.1       
215.48602   113953         12.1       
215.48605   113955         12.1       
215.48608   113957         12.1       
215.48610   113959         12.1       
215.48613   114001         12.1       
215.48615   114003         12.1       
215.48618   114005         12.2       
215.48619   114007         12.2       
215.48622   114009         12.2       
215.48624   114011         12.2       
215.48627   114013         12.2       
215.48628   114015         12.2       
215.48631   114017         12.2       
215.48633   114019         12.2       
215.48636   114021         12.2       
215.48637   114023         12.2       
215.48640   114025         12.3       
215.48642   114027         12.3       
215.48645   114029         12.3       
215.48647   114031         12.3       
215.48650   114033         12.3       
215.48651   114035         12.3       
215.48654   114037         12.3       
215.48656   114039         12.3       
215.48659   114041         12.3       
215.48660   114043         12.4       
215.48663   114045         12.4       
215.48665   114047         12.4       
215.48668   114049         12.4       
215.48669   114051         12.4       
215.48672   114053         12.4       
215.48674   114055         12.4       
215.48677   114057         12.4       
215.48680   114059         12.4       
215.48682   114101         12.5       
215.48685   114103         12.5       
215.48686   114105         12.5       
215.48689   114107         12.5       
215.48691   114109         12.5       
215.48694   114111         12.5       
215.48695   114113         12.5       
215.48698   114115         12.5       
215.48700   114117         12.5       
215.48703   114119         12.5       
215.48705   114121         12.6       
215.48708   114123         12.6       
215.48709   114125         12.6       
215.48712   114127         12.6       
215.48714   114129         12.6       
215.48717   114131         12.6       
215.48718   114133         12.6       
215.48721   114135         12.6       
215.48723   114137         12.6       
215.48726   114139         12.7       
215.48727   114141         12.7       
215.48730   114143         12.7       
215.48732   114145         12.7       
215.48735   114147         12.7       
215.48737   114149         12.7       
215.48740   114151         12.7       
215.48741   114153         12.7       
215.48744   114155         12.7       
215.48747   114157         12.8       
215.48749   114159         12.8       
215.48752   114201         12.8       
215.48753   114203         12.8       
215.48756   114205         12.8       
215.48758   114207         12.8       
215.48761   114209         12.8       
215.48763   114211         12.8       
215.48766   114213         12.8       
215.48767   114215         12.8       
215.48770   114217         12.9       
215.48772   114219         12.9       
215.48775   114221         12.9       
215.48776   114223         12.9       
215.48779   114225         12.9       
215.48781   114227         12.9       
215.48784   114229         12.9       
215.48785   114231         12.9       
215.48788   114233         12.9       
215.48790   114235         13.0       
215.48793   114237         13.0       
215.48795   114239         13.0       
215.48798   114241         13.0       
215.48799   114243         13.0       
215.48802   114245         13.0       
215.48804   114247         13.0       
215.48807   114249         13.0       
215.48808   114251         13.0       
215.48811   114253         13.1       
215.48814   114255         13.1       
215.48816   114257         13.1       
215.48819   114259         13.1       
215.48820   114301         13.1       
215.48824   114303         13.1       
215.48825   114305         13.1       
215.48828   114307         13.1       
215.48830   114309         13.1       
215.48833   114311         13.1       
215.48834   114313         13.2       
215.48837   114315         13.2       
215.48839   114317         13.2       
215.48842   114319         13.2       
215.48843   114321         13.2       
215.48846   114323         13.2       
215.48848   114325         13.2       
215.48851   114327         13.2       
215.48853   114329         13.2       
215.48856   114331         13.3       
215.48857   114333         13.3       
215.48860   114335         13.3       
215.48862   114337         13.3       
215.48865   114339         13.3       
215.48866   114341         13.3       
215.48869   114343         13.3       
215.48871   114345         13.3       
215.48874   114347         13.3       
215.48875   114349         13.4       
215.48878   114351         13.4       
215.48882   114353         13.4       
215.48883   114355         13.4       
215.48886   114357         13.4       
215.48888   114359         13.4       
215.48891   114401         13.4       
215.48892   114403         13.4       
215.48895   114405         13.4       
215.48897   114407         13.4       
215.48900   114409         13.5       
215.48901   114411         13.5       
215.48904   114413         13.5       
215.48906   114415         13.5       
215.48909   114417         13.5       
215.48911   114419         13.5       
215.48914   114421         13.5       
215.48915   114423         13.5       
215.48918   114425         13.5       
215.48920   114427         13.6       
215.48923   114429         13.6       
215.48924   114431         13.6       
215.48927   114433         13.6       
215.48929   114435         13.6       
215.48932   114437         13.6       
215.48933   114439         13.6       
215.48936   114441         13.6       
215.48938   114443         13.6       
215.48941   114445         13.7       
215.48943   114447         13.7       
215.48946   114449         13.7       
215.48949   114451         13.7       
215.48950   114453         13.7       
215.48953   114455         13.7       
215.48955   114457         13.7       
215.48958   114459         13.7       
215.48959   114501         13.7       
215.48962   114503         13.7       
215.48964   114505         13.8       
215.48967   114507         13.8       
215.48969   114509         13.8       
215.48972   114511         13.8       
215.48973   114513         13.8       
215.48976   114515         13.8       
215.48978   114517         13.8       
215.48981   114519         13.8       
215.48982   114521         13.8       
215.48985   114523         13.9       
215.48987   114525         13.9       
215.48990   114527         13.9       
215.48991   114529         13.9       
215.48994   114531         13.9       
215.48996   114533         13.9       
215.48999   114535         13.9       
215.49001   114537         13.9       
215.49004   114539         13.9       
215.49005   114541         14.0       
215.49008   114543         14.0       
215.49010   114545         14.0       
215.49013   114547         14.0       
215.49014   114549         14.0       
215.49017   114551         14.0       
215.49020   114553         14.0       
215.49022   114555         14.0       
215.49025   114557         13.9       
215.49026   114559         13.9       
215.49030   114601         13.9       
215.49031   114603         13.9       
215.49034   114605         13.9       
215.49036   114607         13.9       
215.49039   114609         13.8       
215.49040   114611         13.8       
215.49043   114613         13.8       
215.49045   114615         13.8       
215.49048   114617         13.8       
215.49049   114619         13.8       
215.49052   114621         13.7       
215.49054   114623         13.7       
215.49057   114625         13.7       
215.49059   114627         13.7       
215.49062   114629         13.7       
215.49063   114631         13.6       
215.49066   114633         13.6       
215.49068   114635         13.6       
215.49071   114637         13.6       
215.49072   114639         13.6       
215.49075   114641         13.6       
215.49077   114643         13.5       
215.49080   114645         13.5       
215.49081   114647         13.5       
215.49084   114649         13.5       
215.49088   114651         13.5       
215.49089   114653         13.5       
215.49092   114655         13.4       
215.49094   114657         13.4       
215.49097   114659         13.4       
215.49098   114701         13.4       
215.49101   114703         13.4       
215.49103   114705         13.4       
215.49106   114707         13.3       
215.49107   114709         13.3       
215.49110   114711         13.3       
215.49112   114713         13.3       
215.49115   114715         13.3       
215.49117   114717         13.3       
215.49120   114719         13.2       
215.49121   114721         13.2       
215.49124   114723         13.2       
215.49126   114725         13.2       
215.49129   114727         13.2       
215.49130   114729         13.2       
215.49133   114731         13.1       
215.49135   114733         13.1       
215.49138   114735         13.1       
215.49139   114737         13.1       
215.49142   114739         13.1       
215.49144   114741         13.1       
215.49147   114743         13.0       
215.49149   114745         13.0       
215.49152   114747         13.0       
215.49155   114749         13.0       
215.49156   114751         13.0       
215.49159   114753         13.0       
215.49161   114755         13.0       
215.49164   114757         13.0       
215.49165   114759         13.0       
215.49168   114801         13.0       
215.49170   114803         13.0       
215.49173   114805         13.0       
215.49174   114807         13.0       
215.49178   114809         13.0       
215.49179   114811         13.0       
215.49182   114813         13.0       
215.49184   114815         13.0       
215.49187   114817         13.0       
215.49188   114819         13.0       
215.49191   114821         13.0       
215.49193   114823         13.0       
215.49196   114825         13.0       
215.49197   114827         13.0       
215.49200   114829         13.0       
215.49202   114831         13.0       
215.49205   114833         13.0       
215.49207   114835         13.0       
215.49210   114837         13.0       
215.49211   114839         13.0       
215.49214   114841         13.0       
215.49216   114843         13.0       
215.49219   114845         13.0       
215.49222   114847         13.0       
215.49223   114849         13.0       
215.49226   114851         13.0       
215.49228   114853         13.0       
215.49231   114855         13.0       
215.49232   114857         13.0       
215.49236   114859         13.0       
215.49237   114901         13.0       
215.49240   114903         13.0       
215.49242   114905         13.0       
215.49245   114907         13.0       
215.49246   114909         13.0       
215.49249   114911         13.0       
215.49251   114913         13.0       
215.49254   114915         13.0       
215.49255   114917         13.0       
215.49258   114919         13.0       
215.49260   114921         12.9       
215.49263   114923         12.9       
215.49265   114925         12.9       
215.49268   114927         12.9       
215.49269   114929         12.9       
215.49272   114931         12.8       
215.49274   114933         12.8       
215.49277   114935         12.8       
215.49278   114937         12.8       
215.49281   114939         12.7       
215.49283   114941         12.7       
215.49286   114943         12.7       
215.49289   114945         12.7       
215.49290   114947         12.7       
215.49294   114949         12.6       
215.49295   114951         12.6       
215.49298   114953         12.6       
215.49300   114955         12.6       
215.49303   114957         12.6       
215.49304   114959         12.5       
215.49307   115001         12.5       
215.49309   115003         12.5       
215.49312   115005         12.5       
215.49313   115007         12.4       
215.49316   115009         12.4       
215.49318   115011         12.4       
215.49321   115013         12.4       
215.49323   115015         12.4       
215.49326   115017         12.3       
215.49327   115019         12.3       
215.49330   115021         12.3       
215.49332   115023         12.3       
215.49335   115025         12.3       
215.49336   115027         12.2       
215.49339   115029         12.2       
215.49341   115031         12.2       
215.49344   115033         12.2       
215.49345   115035         12.1       
215.49348   115037         12.1       
215.49350   115039         12.1       
215.49353   115041         12.1       
215.49356   115043         12.1       
215.49358   115045         12.0       
215.49361   115047         12.0       
215.49362   115049         12.0       
215.49365   115051         12.0       
215.49367   115053         12.0       
215.49370   115055         12.0       
215.49371   115057         12.0       
215.49374   115059         12.0       
215.49376   115101         12.0       
215.49379   115103         12.0       
215.49380   115105         12.0       
215.49384   115107         12.0       
215.49385   115109         12.0       
215.49388   115111         12.0       
215.49390   115113         12.0       
215.49393   115115         12.0       
215.49394   115117         12.0       
215.49397   115119         12.0       
215.49399   115121         12.0       
215.49402   115123         12.0       
215.49403   115125         12.0       
215.49406   115127         12.0       
215.49408   115129         12.0       
215.49411   115131         12.0       
215.49413   115133         12.0       
215.49416   115135         12.0       
215.49417   115137         12.0       
215.49420   115139         12.0       
215.49423   115141         12.0       
215.49425   115143         12.0       
215.49428   115145         12.0       
215.49429   115147         12.0       
215.49432   115149         12.0       
215.49434   115151         12.0       
215.49437   115153         12.0       
215.49438   115155         12.0       
215.49442   115157         12.0       
215.49443   115159         12.0       
215.49446   115201         12.0       
215.49448   115203         12.0       
215.49451   115205         12.0       
215.49452   115207         12.0       
215.49455   115209         12.0       
215.49457   115211         12.0       
215.49460   115213         12.0       
215.49461   115215         12.0       
215.49464   115217         12.0       
215.49466   115219         12.0       
215.49469   115221         12.0       
215.49471   115223         12.0       
215.49474   115225         12.0       
215.49475   115227         12.0       
215.49478   115229         12.0       
215.49480   115231         12.0       
215.49483   115233         12.0       
215.49484   115235         12.0       
215.49487   115237         12.0       
215.49489   115239         12.0       
215.49492   115241         12.0       
215.49495   115243         12.0       
215.49496   115245         12.0       
215.49500   115247         12.0       
215.49501   115249         12.0       
215.49504   115251         12.0       
215.49506   115253         12.0       
215.49509   115255         12.0       
215.49510   115257         12.0       
215.49513   115259         12.0       
215.49515   115301         12.0       
215.49518   115303         12.0       
215.49519   115305         12.0       
215.49522   115307         12.0       
215.49524   115309         12.0       
215.49527   115311         12.0       
215.49529   115313         12.0       
215.49532   115315         12.0       
215.49533   115317         12.0       
215.49536   115319         12.0       
215.49538   115321         12.0       
215.49541   115323         12.0       
215.49542   115325         12.0       
215.49545   115327         12.0       
215.49547   115329         12.0       
215.49550   115331         12.0       
215.49551   115333         12.0       
215.49554   115335         12.0       
215.49556   115337         12.0       
215.49559   115339         12.0       
215.49562   115341         12.0       
215.49564   115343         12.0       
215.49567   115345         12.0       
215.49568   115347         12.0       
215.49571   115349         12.0       
215.49573   115351         12.0       
215.49576   115353         12.0       
215.49577   115355         12.0       
215.49580   115357         12.0       
215.49582   115359         12.0       
215.49585   115401         12.0       
215.49586   115403         12.0       
215.49590   115405         12.0       
215.49591   115407         12.0       
215.49594   115409         12.0       
215.49596   115411         12.0       
215.49599   115413         12.0       
215.49600   115415         12.0       
215.49603   115417         12.0       
215.49605   115419         12.0       
215.49608   115421         12.0       
215.49609   115423         12.0       
215.49612   115425         12.0       
215.49614   115427         12.0       
215.49617   115429         12.0       
215.49619   115431         12.0       
215.49622   115433         12.0       
215.49623   115435         12.0       
215.49626   115437         12.0       
215.49629   115439         12.0       
215.49631   115441         12.0       
215.49634   115443         12.0       
215.49635   115445         12.0       
215.49638   115447         12.0       
215.49640   115449         12.0       
215.49643   115451         12.0       
215.49644   115453         12.0       
215.49648   115455         12.0       
215.49649   115457         12.0       
215.49652   115459         12.0       
215.49654   115501         12.0       
215.49657   115503         12.0       
215.49658   115505         12.0       
215.49661   115507         12.0       
215.49663   115509         12.0       
215.49666   115511         12.0       
215.49667   115513         12.0       
215.49670   115515         12.0       
215.49672   115517         12.0       
215.49675   115519         12.0       
215.49677   115521         12.0       
215.49680   115523         12.0       
215.49681   115525         12.0       
215.49684   115527         12.0       
215.49686   115529         12.0       
215.49689   115531         12.0       
215.49690   115533         12.0       
215.49693   115535         12.0       
215.49696   115537         12.0       
215.49698   115539         12.0       
215.49701   115541         12.0       
215.49702   115543         12.0       
215.49706   115545         12.0       
215.49707   115547         12.0       
215.49710   115549         12.0       
215.49712   115551         12.0       
215.49715   115553         12.0       
215.49716   115555         12.0       
215.49719   115557         12.0       
215.49721   115559         12.0       
215.49724   115601         12.0       
215.49725   115603         12.0       
215.49728   115605         12.0       
215.49730   115607         12.0       
215.49733   115609         12.0       
215.49734   115611         12.0       
215.49738   115613         12.0       
215.49739   115615         12.0       
215.49742   115617         12.0       
215.49744   115619         12.0       
215.49747   115621         12.0       
215.49748   115623         12.0       
215.49751   115625         12.0       
215.49753   115627         12.0       
215.49756   115629         12.0       
215.49757   115631         12.0       
215.49760   115633         12.0       
215.49763   115635         12.0       
215.49765   115637         12.0       
215.49768   115639         12.0       
215.49770   115641         12.0       
215.49773   115643         12.0       
215.49774   115645         12.0       
215.49777   115647         12.0       
215.49779   115649         12.0       
215.49782   115651         12.0       
215.49783   115653         12.0       
215.49786   115655         12.0       
215.49788   115657         12.0       
215.49791   115659         12.0       
215.49792   115701         12.0       
215.49796   115703         12.0       
215.49797   115705         12.0       
215.49800   115707         12.0       
215.49802   115709         12.0       
215.49805   115711         12.0       
215.49806   115713         12.0       
215.49809   115715         12.0       
215.49811   115717         12.0       
215.49814   115719         12.0       
215.49815   115721         12.0       
215.49818   115723         12.0       
215.49820   115725         12.0       
215.49823   115727         12.0       
215.49825   115729         12.0       
215.49828   115731         12.0       
215.49829   115733         12.0       
215.49832   115735         12.0       
215.49835   115737         12.0       
215.49837   115739         12.0       
215.49840   115741         12.0       
215.49841   115743         12.0       
215.49844   115745         12.0       
215.49846   115747         12.0       
215.49849   115749         12.0       
215.49850   115751         12.0       
215.49854   115753         12.0       
215.49855   115755         12.0       
215.49858   115757         12.0       
215.49860   115759         12.0       
215.49863   115801         12.0       
215.49864   115803         12.0       
215.49867   115805         12.0       
215.49869   115807         12.0       
215.49872   115809         12.0       
215.49873   115811         12.0       
215.49876   115813         12.0       
215.49878   115815         12.0       
215.49881   115817         12.0       
215.49883   115819         12.0       
215.49886   115821         12.0       
215.49887   115823         12.0       
215.49890   115825         12.0       
215.49892   115827         12.0       
215.49895   115829         12.0       
215.49896   115831         12.0       
215.49899   115833         12.0       
215.49902   115835         12.0       
215.49904   115837         12.0       
215.49907   115839         12.0       
215.49908   115841         12.0       
215.49911   115843         12.0       
215.49913   115845         12.0       
215.49916   115847         12.0       
215.49918   115849         12.0       
215.49921   115851         12.0       
215.49922   115853         12.0       
215.49925   115855         12.0       
215.49927   115857         12.0       
215.49930   115859         12.0       
215.49931   115901         12.0       
215.49934   115903         12.0       
215.49936   115905         12.0       
215.49939   115907         12.0       
215.49940   115909         12.0       
215.49944   115911         12.0       
215.49945   115913         12.0       
215.49948   115915         12.0       
215.49950   115917         12.0       
215.49953   115919         12.0       
215.49954   115921         12.0       
215.49957   115923         12.0       
215.49959   115925         12.0       
215.49962   115927         12.0       
215.49963   115929         12.0       
215.49966   115931         12.0       
215.49969   115933         12.0       
215.49971   115935         12.0       
215.49974   115937         12.0       
215.49976   115939         12.0       
215.49979   115941         12.0       
215.49980   115943         12.0       
215.49983   115945         12.0       
215.49985   115947         12.0       
215.49988   115949         12.0       
215.49989   115951         12.0       
215.49992   115953         12.0       
215.49994   115955         12.0       
215.49997   119957         12.0       
215.49998   119959         12.0       
215.50002   120001         12.0       
215.50003   120003         12.0       
215.50006   120005         11.9       
215.50008   120007         11.9       
215.50011   120009         11.9       
215.50012   120011         11.9       
215.50015   120013         11.9       
215.50017   120015         11.8       
215.50020   120017         11.8       
215.50021   120019         11.8       
215.50024   120021         11.8       
215.50026   120023         11.7       
215.50029   120025         11.7       
215.50031   120027         11.7       
215.50034   120029         11.7       
215.50037   120031         11.7       
215.50038   120033         11.6       
215.50041   120035         11.6       
215.50043   120037         11.6       
215.50046   120039         11.6       
215.50047   120041         11.5       
215.50050   120043         11.5       
215.50052   120045         11.5       
215.50055   120047         11.5       
215.50056   120049         11.5       
215.50060   120051         11.4       
215.50061   120053         11.4       
215.50064   120055         11.4       
215.50066   120057         11.4       
215.50069   120059         11.3       
215.50070   120101         11.3       
215.50073   120103         11.3       
215.50075   120105         11.3       
215.50078   120107         11.3       
215.50079   120109         11.2       
215.50082   120111         11.2       
215.50084   120113         11.2       
215.50087   120115         11.2       
215.50089   120117         11.1       
215.50092   120119         11.1       
215.50093   120121         11.1       
215.50096   120123         11.1       
215.50098   120125         11.1       
215.50101   120127         11.0       
215.50104   120129         11.0       
215.50105   120131         11.0       
215.50108   120133         11.0       
215.50110   120135         11.0       
215.50113   120137         11.0       
215.50114   120139         11.0       
215.50117   120141         11.0       
215.50119   120143         11.0       
215.50122   120145         11.0       
215.50124   120147         11.0       
215.50127   120149         11.0       
215.50128   120151         11.0       
215.50131   120153         11.0       
215.50133   120155         11.0       
215.50136   120157         11.0       
215.50137   120159         11.0       
215.50140   120201         11.0       
215.50142   120203         11.0       
215.50145   120205         11.0       
215.50146   120207         11.0       
215.50150   120209         11.0       
215.50151   120211         11.0       
215.50154   120213         11.0       
215.50156   120215         11.0       
215.50159   120217         11.0       
215.50160   120219         11.0       
215.50163   120221         11.0       
215.50165   120223         11.0       
215.50168   120225         11.0       
215.50171   120227         11.0       
215.50172   120229         11.0       
215.50175   120231         11.0       
215.50177   120233         11.0       
215.50180   120235         11.0       
215.50182   120237         11.0       
215.50185   120239         11.0       
215.50186   120241         11.0       
215.50189   120243         11.0       
215.50191   120245         11.0       
215.50194   120247         11.0       
215.50195   120249         11.0       
215.50198   120251         11.0       
215.50200   120253         11.0       
215.50203   120255         11.0       
215.50204   120257         11.0       
215.50208   120259         11.0       
215.50209   120301         11.0       
215.50212   120303         11.0       
215.50214   120305         11.0       
215.50217   120307         11.0       
215.50218   120309         11.0       
215.50221   120311         11.0       
215.50223   120313         11.0       
215.50226   120315         11.0       
215.50227   120317         11.0       
215.50230   120319         11.0       
215.50232   120321         11.0       
215.50235   120323         11.0       
215.50237   120325         11.0       
215.50240   120327         11.0       
215.50243   120329         11.0       
215.50244   120331         11.0       
215.50247   120333         11.0       
215.50249   120335         11.0       
215.50252   120337         11.0       
215.50253   120339         11.0       
215.50256   120341         11.0       
215.50258   120343         11.0       
215.50261   120345         11.0       
215.50262   120347         11.0       
215.50266   120349         11.0       
215.50267   120351         11.0       
215.50270   120353         11.0       
215.50272   120355         11.0       
215.50275   120357         11.0       
215.50276   120359         11.0       
215.50279   120401         11.0       
215.50281   120403         11.0       
215.50284   120405         11.0       
215.50285   120407         11.0       
215.50288   120409         11.0       
215.50290   120411         11.0       
215.50293   120413         11.0       
215.50294   120415         11.0       
215.50298   120417         11.0       
215.50299   120419         11.0       
215.50302   120421         11.0       
215.50304   120423         11.0       
215.50307   120425         11.0       
215.50310   120427         11.0       
215.50311   120429         11.0       
215.50314   120431         11.0       
215.50316   120433         11.0       
215.50319   120435         11.0       
215.50320   120437         11.0       
215.50323   120439         11.0       
215.50325   120441         11.0       
215.50328   120443         11.0       
215.50330   120445         11.0       
215.50333   120447         11.0       
215.50334   120449         11.0       
215.50337   120451         11.0       
215.50339   120453         11.0       
215.50342   120455         11.0       
215.50343   120457         11.0       
215.50346   120459         11.0       
215.50348   120501         11.0       
215.50351   120503         11.0       
215.50352   120505         11.0       
215.50356   120507         11.0       
215.50357   120509         11.0       
215.50360   120511         11.0       
215.50362   120513         11.0       
215.50365   120515         11.0       
215.50366   120517         11.0       
215.50369   120519         11.0       
215.50371   120521         11.0       
215.50374   120523         11.0       
215.50377   120525         11.0       
215.50378   120527         11.0       
215.50381   120529         11.0       
215.50383   120531         11.0       
215.50386   120533         11.0       
215.50388   120535         11.0       
215.50391   120537         11.0       
215.50392   120539         11.0       
215.50395   120541         11.0       
215.50397   120543         11.0       
215.50400   120545         11.0       
215.50401   120547         11.0       
215.50404   120549         11.0       
215.50406   120551         11.0       
215.50409   120553         11.0       
215.50410   120555         11.0       
215.50414   120557         11.0       
215.50415   120559         11.0       
215.50418   120601         11.0       
215.50420   120603         11.0       
215.50423   120605         11.0       
215.50424   120607         11.0       
215.50427   120609         11.0       
215.50429   120611         11.0       
215.50432   120613         11.0       
215.50433   120615         11.0       
215.50436   120617         11.0       
215.50438   120619         11.0       
215.50441   120621         11.0       
215.50444   120623         11.0       
215.50446   120625         11.0       
215.50449   120627         11.0       
215.50450   120629         11.0       
215.50453   120631         11.0       
215.50455   120633         11.0       
215.50458   120635         11.0       
215.50459   120637         11.0       
215.50462   120639         11.0       
215.50464   120641         11.0       
215.50467   120643         11.0       
215.50468   120645         11.0       
215.50471   120647         11.0       
215.50473   120649         11.0       
215.50476   120651         11.0       
215.50478   120653         11.0       
215.50481   120655         11.0       
215.50482   120657         11.0       
215.50485   120659         11.0       
215.50487   120701         11.0       
215.50490   120703         11.0       
215.50491   120705         11.0       
215.50494   120707         11.0       
215.50496   120709         11.0       
215.50499   120711         11.0       
215.50500   120713         11.0       
215.50504   120715         11.0       
215.50505   120717         11.0       
215.50508   120719         11.0       
215.50511   120721         11.0       
215.50513   120723         11.0       
215.50516   120725         11.0       
215.50517   120727         11.0       
215.50520   120729         11.0       
215.50522   120731         11.0       
215.50525   120733         11.0       
215.50526   120735         11.0       
215.50529   120737         11.0       
215.50531   120739         11.0       
215.50534   120741         11.0       
215.50536   120743         11.0       
215.50539   120745         11.0       
215.50540   120747         11.0       
215.50543   120749         11.0       
215.50545   120751         11.0       
215.50548   120753         11.0       
215.50549   120755         11.0       
215.50552   120757         11.0       
215.50554   120759         11.0       
215.50557   120801         11.0       
215.50558   120803         11.0       
215.50562   120805         11.0       
215.50563   120807         11.0       
215.50566   120809         11.0       
215.50568   120811         11.0       
215.50571   120813         11.0       
215.50572   120815         11.0       
215.50575   120817         11.0       
215.50577   120819         11.0       
215.50580   120821         11.0       
215.50583   120823         11.0       
215.50584   120825         11.0       
215.50587   120827         11.0       
215.50589   120829         11.0       
215.50592   120831         11.0       
215.50594   120833         11.0       
215.50597   120835         11.0       
215.50598   120837         11.0       
215.50601   120839         11.0       
215.50603   120841         11.0       
215.50606   120843         11.0       
215.50607   120845         11.0       
215.50610   120847         11.0       
215.50612   120849         11.0       
215.50615   120851         11.0       
215.50616   120853         11.0       
215.50620   120855         11.0       
215.50621   120857         11.0       
215.50624   120859         11.0       
215.50626   120901         11.0       
215.50629   120903         11.0       
215.50630   120905         11.0       
215.50633   120907         11.0       
215.50635   120909         11.0       
215.50638   120911         11.0       
215.50639   120913         11.0       
215.50642   120915         11.0       
215.50644   120917         11.0       
215.50647   120919         11.0       
215.50650   120921         11.0       
215.50652   120923         11.0       
215.50655   120925         11.0       
215.50656   120927         11.0       
215.50659   120929         11.0       
215.50661   120931         11.0       
215.50664   120933         11.0       
215.50665   120935         11.0       
215.50668   120937         11.0       
215.50670   120939         11.0       
215.50673   120941         11.0       
215.50674   120943         11.0       
215.50677   120945         11.0       
215.50679   120947         11.0       
215.50682   120949         11.0       
215.50684   120951         11.0       
215.50687   120953         11.0       
215.50688   120955         11.0       
215.50691   120957         11.0       
215.50693   120959         11.0       
215.50696   121001         11.0       
215.50697   121003         11.0       
215.50700   121005         11.0       
215.50702   121007         11.0       
215.50705   121009         11.0       
215.50706   121011         11.0       
215.50710   121013         11.0       
215.50711   121015         11.0       
215.50714   121017         11.0       
215.50717   121019         11.0       
215.50719   121021         11.0       
215.50722   121023         11.0       
215.50723   121025         11.0       
215.50726   121027         11.0       
215.50728   121029         11.0       
215.50731   121031         11.0       
215.50732   121033         11.0       
215.50735   121035         11.0       
215.50737   121037         11.0       
215.50740   121039         11.0       
215.50742   121041         11.0       
215.50745   121043         11.0       
215.50746   121045         11.0       
215.50749   121047         11.0       
215.50751   121049         11.0       
215.50754   121051         11.0       
215.50755   121053         11.0       
215.50758   121055         11.0       
215.50760   121057         11.0       
215.50763   121059         11.0       
215.50764   121101         11.0       
215.50768   121103         11.0       
215.50769   121105         11.0       
215.50772   121107         11.0       
215.50774   121109         11.0       
215.50777   121111         11.0       
215.50778   121113         11.0       
215.50781   121115         11.0       
215.50784   121117         11.0       
215.50786   121119         11.0       
215.50789   121121         11.0       
215.50790   121123         11.0       
215.50793   121125         11.0       
215.50795   121127         11.0       
215.50798   121129         11.0       
215.50800   121131         11.0       
215.50803   121133         11.0       
215.50804   121135         11.0       
215.50807   121137         11.0       
215.50809   121139         11.0       
215.50812   121141         11.0       
215.50813   121143         11.0       
215.50816   121145         11.0       
215.50818   121147         11.0       
215.50821   121149         11.0       
215.50822   121151         11.0       
215.50826   121153         11.0       
215.50827   121155         11.0       
215.50830   121157         11.0       
215.50832   121159         11.0       
215.50835   121201         11.0       
215.50836   121203         11.0       
215.50839   121205         11.0       
215.50841   121207         11.0       
215.50844   121209         11.0       
215.50845   121211         11.0       
215.50848   121213         11.0       
215.50851   121215         11.0       
215.50853   121217         11.0       
215.50856   121219         11.0       
215.50858   121221         11.0       
215.50861   121223         11.0       
215.50862   121225         11.0       
215.50865   121227         11.0       
215.50867   121229         11.0       
215.50870   121231         11.0       
215.50871   121233         11.0       
215.50874   121235         11.0       
215.50876   121237         11.0       
215.50879   121239         11.0       
215.50880   121241         11.0       
215.50883   121243         11.0       
215.50885   121245         11.0       
215.50888   121247         11.0       
215.50890   121249         11.0       
215.50893   121251         11.0       
215.50894   121253         11.0       
215.50897   121255         11.0       
215.50899   121257         11.0       
215.50902   121259         11.0       
215.50903   121301         11.0       
215.50906   121303         11.0       
215.50908   121305         11.0       
215.50911   121307         11.0       
215.50912   121309         11.0       
215.50916   121311         11.0       
215.50919   121313         11.0       
215.50920   121315         11.0       
215.50923   121317         11.0       
215.50925   121319         11.0       
215.50928   121321         11.0       
215.50929   121323         11.0       
215.50932   121325         11.0       
215.50934   121327         11.0       
215.50937   121329         11.0       
215.50938   121331         11.0       
215.50941   121333         11.0       
215.50943   121335         11.0       
215.50946   121337         11.0       
215.50948   121339         11.0       
215.50951   121341         11.0       
215.50952   121343         11.0       
215.50955   121345         11.0       
215.50957   121347         11.0       
215.50960   121349         11.0       
215.50961   121351         11.0       
215.50964   121353         11.0       
215.50966   121355         11.0       
215.50969   121357         11.0       
215.50970   121359         11.0       
215.50974   121401         11.0       
215.50975   121403         11.0       
215.50978   121405         11.0       
215.50980   121407         11.0       
215.50983   121409         11.0       
215.50986   121411         11.0       
215.50987   121413         11.0       
215.50990   121415         11.0       
215.50992   121417         11.0       
215.50995   121419         11.0       
215.50996   121421         11.0       
215.50999   121423         11.0       
215.51001   121425         11.0       
215.51004   121427         11.0       
215.51006   121429         11.0       
215.51009   121431         11.0       
215.51010   121433         11.0       
215.51013   121435         11.0       
215.51015   121437         11.0       
215.51018   121439         11.0       
215.51019   121441         11.0       
215.51022   121443         11.0       
215.51024   121445         11.0       
215.51027   121447         11.0       
215.51028   121449         11.0       
215.51031   121451         11.0       
215.51033   121453         11.0       
215.51036   121455         11.0       
215.51038   121457         11.0       
215.51041   121459         11.0       
215.51042   121501         11.0       
215.51045   121503         11.0       
215.51047   121505         11.0       
215.51050   121507         11.0       
215.51051   121509         11.0       
215.51054   121511         11.0       
215.51057   121513         11.0       
215.51059   121515         11.0       
215.51062   121517         11.0       
215.51064   121519         11.0       
215.51067   121521         11.0       
215.51068   121523         11.0       
215.51071   121525         11.0       
215.51073   121527         11.0       
215.51076   121529         11.0       
215.51077   121531         11.0       
215.51080   121533         11.0       
215.51082   121535         11.0       
215.51085   121537         11.0       
215.51086   121539         11.0       
215.51089   121541         11.0       
215.51091   121543         11.0       
215.51094   121545         11.0       
215.51096   121547         11.0       
215.51099   121549         11.0       
215.51100   121551         11.0       
215.51103   121553         11.0       
215.51105   121555         11.0       
215.51108   121557         11.0       
215.51109   121559         11.0       
215.51112   121601         11.0       
215.51114   121603         11.0       
215.51117   121605         11.0       
215.51118   121607         11.0       
215.51122   121609         11.0       
215.51125   121611         11.0       
215.51126   121613         11.0       
215.51129   121615         11.0       
215.51131   121617         11.0       
215.51134   121619         11.0       
215.51135   121621         11.0       
215.51138   121623         11.0       
215.51140   121625         11.0       
215.51143   121627         11.0       
215.51144   121629         11.0       
215.51147   121631         11.0       
215.51149   121633         11.0       
215.51152   121635         11.0       
215.51154   121637         11.0       
215.51157   121639         11.0       
215.51158   121641         11.0       
215.51161   121643         11.0       
215.51163   121645         11.0       
215.51166   121647         11.0       
215.51167   121649         11.0       
215.51170   121651         11.0       
215.51172   121653         11.0       
215.51175   121655         11.0       
215.51176   121657         11.0       
215.51180   121659         11.0       
215.51181   121701         11.0       
215.51184   121703         11.0       
215.51186   121705         11.0       
